Pixels #,Intensity (a.u.)
0.00000e+00,1.01976e-02
1.00000e+00,1.01637e-02
2.00000e+00,1.01224e-02
3.00000e+00,1.00498e-02
4.00000e+00,9.97624e-03
5.00000e+00,9.90680e-03
6.00000e+00,9.84293e-03
7.00000e+00,9.75648e-03
8.00000e+00,9.67043e-03
9.00000e+00,9.57711e-03
1.00000e+01,9.49300e-03
1.10000e+01,9.37668e-03
1.20000e+01,9.27834e-03
1.30000e+01,9.19377e-03
1.40000e+01,9.15783e-03
1.50000e+01,9.10953e-03
1.60000e+01,9.02328e-03
1.70000e+01,8.88198e-03
1.80000e+01,8.71713e-03
1.90000e+01,8.55265e-03
2.00000e+01,8.40765e-03
2.10000e+01,8.29191e-03
2.20000e+01,8.20200e-03
2.30000e+01,8.11330e-03
2.40000e+01,8.02494e-03
2.50000e+01,7.93230e-03
2.60000e+01,7.84967e-03
2.70000e+01,7.75000e-03
2.80000e+01,7.64076e-03
2.90000e+01,7.53030e-03
3.00000e+01,7.47513e-03
3.10000e+01,7.48516e-03
3.20000e+01,7.51317e-03
3.30000e+01,7.49088e-03
3.40000e+01,7.40801e-03
3.50000e+01,7.29734e-03
3.60000e+01,7.20572e-03
3.70000e+01,7.13633e-03
3.80000e+01,7.08657e-03
3.90000e+01,7.04397e-03
4.00000e+01,6.95959e-03
4.10000e+01,6.87156e-03
4.20000e+01,6.78197e-03
4.30000e+01,6.70264e-03
4.40000e+01,6.56759e-03
4.50000e+01,6.40274e-03
4.60000e+01,6.23789e-03
4.70000e+01,6.14447e-03
4.80000e+01,6.10498e-03
4.90000e+01,6.09048e-03
5.00000e+01,6.04877e-03
5.10000e+01,6.02795e-03
5.20000e+01,6.02927e-03
5.30000e+01,6.07657e-03
5.40000e+01,6.13797e-03
5.50000e+01,6.18168e-03
5.60000e+01,6.23460e-03
5.70000e+01,6.29517e-03
5.80000e+01,6.39114e-03
5.90000e+01,6.45890e-03
6.00000e+01,6.50287e-03
6.10000e+01,6.49967e-03
6.20000e+01,6.47921e-03
6.30000e+01,6.43235e-03
6.40000e+01,6.38498e-03
6.50000e+01,6.33084e-03
6.60000e+01,6.27388e-03
6.70000e+01,6.22539e-03
6.80000e+01,6.20563e-03
6.90000e+01,6.21239e-03
7.00000e+01,6.25460e-03
7.10000e+01,6.28656e-03
7.20000e+01,6.29077e-03
7.30000e+01,6.27931e-03
7.40000e+01,6.24691e-03
7.50000e+01,6.19841e-03
7.60000e+01,6.17657e-03
7.70000e+01,6.17872e-03
7.80000e+01,6.21421e-03
7.90000e+01,6.27388e-03
8.00000e+01,6.33621e-03
8.10000e+01,6.32631e-03
8.20000e+01,6.27611e-03
8.30000e+01,6.22526e-03
8.40000e+01,6.25842e-03
8.50000e+01,6.31253e-03
8.60000e+01,6.33516e-03
8.70000e+01,6.34910e-03
8.80000e+01,6.39575e-03
8.90000e+01,6.54382e-03
9.00000e+01,6.65584e-03
9.10000e+01,6.72404e-03
9.20000e+01,6.71010e-03
9.30000e+01,6.70862e-03
9.40000e+01,6.72654e-03
9.50000e+01,6.73541e-03
9.60000e+01,6.73469e-03
9.70000e+01,6.73039e-03
9.80000e+01,6.78013e-03
9.90000e+01,6.82932e-03
1.00000e+02,6.86879e-03
1.01000e+02,6.86794e-03
1.02000e+02,6.90246e-03
1.03000e+02,6.93524e-03
1.04000e+02,6.97845e-03
1.05000e+02,6.98465e-03
1.06000e+02,7.00648e-03
1.07000e+02,7.04490e-03
1.08000e+02,7.10341e-03
1.09000e+02,7.15497e-03
1.10000e+02,7.16528e-03
1.11000e+02,7.14544e-03
1.12000e+02,7.10788e-03
1.13000e+02,7.10079e-03
1.14000e+02,7.15174e-03
1.15000e+02,7.20551e-03
1.16000e+02,7.25335e-03
1.17000e+02,7.27893e-03
1.18000e+02,7.27911e-03
1.19000e+02,7.25056e-03
1.20000e+02,7.21222e-03
1.21000e+02,7.16243e-03
1.22000e+02,7.08015e-03
1.23000e+02,6.99356e-03
1.24000e+02,6.95679e-03
1.25000e+02,6.96763e-03
1.26000e+02,7.01086e-03
1.27000e+02,7.05680e-03
1.28000e+02,7.11968e-03
1.29000e+02,7.17289e-03
1.30000e+02,7.18509e-03
1.31000e+02,7.19071e-03
1.32000e+02,7.16712e-03
1.33000e+02,7.14531e-03
1.34000e+02,7.08668e-03
1.35000e+02,7.08403e-03
1.36000e+02,7.10756e-03
1.37000e+02,7.16007e-03
1.38000e+02,7.17722e-03
1.39000e+02,7.18175e-03
1.40000e+02,7.21707e-03
1.41000e+02,7.26897e-03
1.42000e+02,7.30543e-03
1.43000e+02,7.30027e-03
1.44000e+02,7.30067e-03
1.45000e+02,7.30496e-03
1.46000e+02,7.34539e-03
1.47000e+02,7.37455e-03
1.48000e+02,7.39047e-03
1.49000e+02,7.36159e-03
1.50000e+02,7.31379e-03
1.51000e+02,7.26453e-03
1.52000e+02,7.25097e-03
1.53000e+02,7.29071e-03
1.54000e+02,7.37583e-03
1.55000e+02,7.45941e-03
1.56000e+02,7.53562e-03
1.57000e+02,7.61462e-03
1.58000e+02,7.73321e-03
1.59000e+02,7.84833e-03
1.60000e+02,7.98711e-03
1.61000e+02,8.08533e-03
1.62000e+02,8.18338e-03
1.63000e+02,8.25524e-03
1.64000e+02,8.30306e-03
1.65000e+02,8.32993e-03
1.66000e+02,8.34701e-03
1.67000e+02,8.35500e-03
1.68000e+02,8.41771e-03
1.69000e+02,8.50840e-03
1.70000e+02,8.62851e-03
1.71000e+02,8.71246e-03
1.72000e+02,8.82637e-03
1.73000e+02,8.90146e-03
1.74000e+02,8.96299e-03
1.75000e+02,8.93068e-03
1.76000e+02,8.89844e-03
1.77000e+02,8.87419e-03
1.78000e+02,8.87561e-03
1.79000e+02,8.86958e-03
1.80000e+02,8.82236e-03
1.81000e+02,8.77474e-03
1.82000e+02,8.72271e-03
1.83000e+02,8.69634e-03
1.84000e+02,8.67385e-03
1.85000e+02,8.67663e-03
1.86000e+02,8.68999e-03
1.87000e+02,8.70972e-03
1.88000e+02,8.70748e-03
1.89000e+02,8.66861e-03
1.90000e+02,8.63446e-03
1.91000e+02,8.61905e-03
1.92000e+02,8.65832e-03
1.93000e+02,8.70981e-03
1.94000e+02,8.77035e-03
1.95000e+02,8.78312e-03
1.96000e+02,8.73206e-03
1.97000e+02,8.61378e-03
1.98000e+02,8.49677e-03
1.99000e+02,8.42845e-03
2.00000e+02,8.40376e-03
2.01000e+02,8.46167e-03
2.02000e+02,8.54044e-03
2.03000e+02,8.63321e-03
2.04000e+02,8.64938e-03
2.05000e+02,8.59421e-03
2.06000e+02,8.54840e-03
2.07000e+02,8.54230e-03
2.08000e+02,8.59825e-03
2.09000e+02,8.72441e-03
2.10000e+02,8.85958e-03
2.11000e+02,8.93698e-03
2.12000e+02,8.91018e-03
2.13000e+02,8.87157e-03
2.14000e+02,8.85248e-03
2.15000e+02,8.85497e-03
2.16000e+02,8.87714e-03
2.17000e+02,8.91173e-03
2.18000e+02,8.93045e-03
2.19000e+02,8.89850e-03
2.20000e+02,8.87198e-03
2.21000e+02,8.88068e-03
2.22000e+02,8.91970e-03
2.23000e+02,8.90848e-03
2.24000e+02,8.86709e-03
2.25000e+02,8.86352e-03
2.26000e+02,8.89107e-03
2.27000e+02,8.94142e-03
2.28000e+02,8.95441e-03
2.29000e+02,9.00931e-03
2.30000e+02,9.04281e-03
2.31000e+02,9.05321e-03
2.32000e+02,9.00750e-03
2.33000e+02,8.95814e-03
2.34000e+02,8.92405e-03
2.35000e+02,8.88650e-03
2.36000e+02,8.85514e-03
2.37000e+02,8.80403e-03
2.38000e+02,8.75857e-03
2.39000e+02,8.71882e-03
2.40000e+02,8.68435e-03
2.41000e+02,8.65778e-03
2.42000e+02,8.59964e-03
2.43000e+02,8.55454e-03
2.44000e+02,8.48796e-03
2.45000e+02,8.43932e-03
2.46000e+02,8.35677e-03
2.47000e+02,8.29324e-03
2.48000e+02,8.23153e-03
2.49000e+02,8.19346e-03
2.50000e+02,8.15910e-03
2.51000e+02,8.09019e-03
2.52000e+02,8.01498e-03
2.53000e+02,7.93043e-03
2.54000e+02,7.86304e-03
2.55000e+02,7.82268e-03
2.56000e+02,7.80234e-03
2.57000e+02,7.81071e-03
2.58000e+02,7.81869e-03
2.59000e+02,7.81360e-03
2.60000e+02,7.77919e-03
2.61000e+02,7.70367e-03
2.62000e+02,7.62044e-03
2.63000e+02,7.54412e-03
2.64000e+02,7.52026e-03
2.65000e+02,7.50003e-03
2.66000e+02,7.50637e-03
2.67000e+02,7.46339e-03
2.68000e+02,7.43826e-03
2.69000e+02,7.39662e-03
2.70000e+02,7.39993e-03
2.71000e+02,7.41273e-03
2.72000e+02,7.46878e-03
2.73000e+02,7.54973e-03
2.74000e+02,7.61995e-03
2.75000e+02,7.65194e-03
2.76000e+02,7.63202e-03
2.77000e+02,7.60011e-03
2.78000e+02,7.59231e-03
2.79000e+02,7.62420e-03
2.80000e+02,7.67398e-03
2.81000e+02,7.70538e-03
2.82000e+02,7.71303e-03
2.83000e+02,7.70464e-03
2.84000e+02,7.69905e-03
2.85000e+02,7.66980e-03
2.86000e+02,7.66380e-03
2.87000e+02,7.71112e-03
2.88000e+02,7.84996e-03
2.89000e+02,8.02855e-03
2.90000e+02,8.17634e-03
2.91000e+02,8.28195e-03
2.92000e+02,8.31513e-03
2.93000e+02,8.34259e-03
2.94000e+02,8.36719e-03
2.95000e+02,8.43679e-03
2.96000e+02,8.51777e-03
2.97000e+02,8.54533e-03
2.98000e+02,8.50471e-03
2.99000e+02,8.37194e-03
3.00000e+02,8.20932e-03
3.01000e+02,8.05271e-03
3.02000e+02,7.99304e-03
3.03000e+02,7.97742e-03
3.04000e+02,7.94759e-03
3.05000e+02,7.86042e-03
3.06000e+02,7.75213e-03
3.07000e+02,7.64283e-03
3.08000e+02,7.54560e-03
3.09000e+02,7.48848e-03
3.10000e+02,7.40268e-03
3.11000e+02,7.26089e-03
3.12000e+02,7.11775e-03
3.13000e+02,6.99580e-03
3.14000e+02,6.96527e-03
3.15000e+02,6.96822e-03
3.16000e+02,6.94709e-03
3.17000e+02,6.93353e-03
3.18000e+02,6.89955e-03
3.19000e+02,6.91071e-03
3.20000e+02,6.86285e-03
3.21000e+02,6.88206e-03
3.22000e+02,6.94743e-03
3.23000e+02,7.10860e-03
3.24000e+02,7.24665e-03
3.25000e+02,7.34249e-03
3.26000e+02,7.39260e-03
3.27000e+02,7.41053e-03
3.28000e+02,7.43163e-03
3.29000e+02,7.42265e-03
3.30000e+02,7.39650e-03
3.31000e+02,7.34947e-03
3.32000e+02,7.32818e-03
3.33000e+02,7.36764e-03
3.34000e+02,7.41185e-03
3.35000e+02,7.40704e-03
3.36000e+02,7.35319e-03
3.37000e+02,7.36354e-03
3.38000e+02,7.45546e-03
3.39000e+02,7.61443e-03
3.40000e+02,7.72628e-03
3.41000e+02,7.77279e-03
3.42000e+02,7.77272e-03
3.43000e+02,7.76593e-03
3.44000e+02,7.79945e-03
3.45000e+02,7.86980e-03
3.46000e+02,7.95929e-03
3.47000e+02,8.01282e-03
3.48000e+02,7.99542e-03
3.49000e+02,7.91563e-03
3.50000e+02,7.79661e-03
3.51000e+02,7.67264e-03
3.52000e+02,7.58172e-03
3.53000e+02,7.56674e-03
3.54000e+02,7.56602e-03
3.55000e+02,7.51705e-03
3.56000e+02,7.42004e-03
3.57000e+02,7.32739e-03
3.58000e+02,7.31789e-03
3.59000e+02,7.35700e-03
3.60000e+02,7.40514e-03
3.61000e+02,7.35475e-03
3.62000e+02,7.23711e-03
3.63000e+02,7.08558e-03
3.64000e+02,6.94777e-03
3.65000e+02,6.90600e-03
3.66000e+02,6.91957e-03
3.67000e+02,6.97515e-03
3.68000e+02,7.02735e-03
3.69000e+02,7.07040e-03
3.70000e+02,7.12075e-03
3.71000e+02,7.15811e-03
3.72000e+02,7.12953e-03
3.73000e+02,7.05103e-03
3.74000e+02,6.96362e-03
3.75000e+02,6.96884e-03
3.76000e+02,7.05587e-03
3.77000e+02,7.11138e-03
3.78000e+02,7.09539e-03
3.79000e+02,6.99649e-03
3.80000e+02,6.87011e-03
3.81000e+02,6.73089e-03
3.82000e+02,6.59841e-03
3.83000e+02,6.49663e-03
3.84000e+02,6.39039e-03
3.85000e+02,6.29355e-03
3.86000e+02,6.20231e-03
3.87000e+02,6.19820e-03
3.88000e+02,6.25584e-03
3.89000e+02,6.31918e-03
3.90000e+02,6.34642e-03
3.91000e+02,6.32483e-03
3.92000e+02,6.32596e-03
3.93000e+02,6.31607e-03
3.94000e+02,6.32358e-03
3.95000e+02,6.32066e-03
3.96000e+02,6.34759e-03
3.97000e+02,6.37659e-03
3.98000e+02,6.40986e-03
3.99000e+02,6.40857e-03
4.00000e+02,6.39856e-03
4.01000e+02,6.42107e-03
4.02000e+02,6.49813e-03
4.03000e+02,6.54359e-03
4.04000e+02,6.57801e-03
4.05000e+02,6.57051e-03
4.06000e+02,6.57354e-03
4.07000e+02,6.63028e-03
4.08000e+02,6.67689e-03
4.09000e+02,6.70327e-03
4.10000e+02,6.62944e-03
4.11000e+02,6.59073e-03
4.12000e+02,6.52243e-03
4.13000e+02,6.46380e-03
4.14000e+02,6.37217e-03
4.15000e+02,6.31309e-03
4.16000e+02,6.27063e-03
4.17000e+02,6.25602e-03
4.18000e+02,6.23318e-03
4.19000e+02,6.24629e-03
4.20000e+02,6.29483e-03
4.21000e+02,6.37294e-03
4.22000e+02,6.47505e-03
4.23000e+02,6.56779e-03
4.24000e+02,6.61789e-03
4.25000e+02,6.61027e-03
4.26000e+02,6.64077e-03
4.27000e+02,6.73207e-03
4.28000e+02,6.86016e-03
4.29000e+02,6.93314e-03
4.30000e+02,6.92845e-03
4.31000e+02,6.84985e-03
4.32000e+02,6.75079e-03
4.33000e+02,6.66095e-03
4.34000e+02,6.63038e-03
4.35000e+02,6.59337e-03
4.36000e+02,6.51823e-03
4.37000e+02,6.42125e-03
4.38000e+02,6.35596e-03
4.39000e+02,6.34892e-03
4.40000e+02,6.45347e-03
4.41000e+02,6.58251e-03
4.42000e+02,6.69360e-03
4.43000e+02,6.75525e-03
4.44000e+02,6.73628e-03
4.45000e+02,6.66439e-03
4.46000e+02,6.61414e-03
4.47000e+02,6.61578e-03
4.48000e+02,6.71541e-03
4.49000e+02,6.86559e-03
4.50000e+02,6.98701e-03
4.51000e+02,7.06210e-03
4.52000e+02,7.12515e-03
4.53000e+02,7.19693e-03
4.54000e+02,7.28903e-03
4.55000e+02,7.37687e-03
4.56000e+02,7.40926e-03
4.57000e+02,7.39929e-03
4.58000e+02,7.36817e-03
4.59000e+02,7.30952e-03
4.60000e+02,7.23911e-03
4.61000e+02,7.13570e-03
4.62000e+02,7.05895e-03
4.63000e+02,7.06330e-03
4.64000e+02,7.14477e-03
4.65000e+02,7.21964e-03
4.66000e+02,7.18824e-03
4.67000e+02,7.10948e-03
4.68000e+02,7.08561e-03
4.69000e+02,7.12362e-03
4.70000e+02,7.14361e-03
4.71000e+02,7.12096e-03
4.72000e+02,7.09864e-03
4.73000e+02,7.13152e-03
4.74000e+02,7.19446e-03
4.75000e+02,7.30725e-03
4.76000e+02,7.34231e-03
4.77000e+02,7.33097e-03
4.78000e+02,7.18217e-03
4.79000e+02,7.01381e-03
4.80000e+02,6.90226e-03
4.81000e+02,6.93437e-03
4.82000e+02,7.06461e-03
4.83000e+02,7.19423e-03
4.84000e+02,7.29552e-03
4.85000e+02,7.37722e-03
4.86000e+02,7.44830e-03
4.87000e+02,7.50519e-03
4.88000e+02,7.53879e-03
4.89000e+02,7.54930e-03
4.90000e+02,7.57271e-03
4.91000e+02,7.56954e-03
4.92000e+02,7.60756e-03
4.93000e+02,7.61614e-03
4.94000e+02,7.68129e-03
4.95000e+02,7.76719e-03
4.96000e+02,7.92987e-03
4.97000e+02,8.08691e-03
4.98000e+02,8.21283e-03
4.99000e+02,8.31045e-03
5.00000e+02,8.38072e-03
5.01000e+02,8.46187e-03
5.02000e+02,8.52257e-03
5.03000e+02,8.58473e-03
5.04000e+02,8.59570e-03
5.05000e+02,8.54251e-03
5.06000e+02,8.49858e-03
5.07000e+02,8.54340e-03
5.08000e+02,8.69156e-03
5.09000e+02,8.92142e-03
5.10000e+02,9.12427e-03
5.11000e+02,9.29714e-03
5.12000e+02,9.43420e-03
5.13000e+02,9.53863e-03
5.14000e+02,9.58582e-03
5.15000e+02,9.57864e-03
5.16000e+02,9.57279e-03
5.17000e+02,9.52671e-03
5.18000e+02,9.42588e-03
5.19000e+02,9.24990e-03
5.20000e+02,9.09576e-03
5.21000e+02,8.95697e-03
5.22000e+02,8.88736e-03
5.23000e+02,8.83257e-03
5.24000e+02,8.82681e-03
5.25000e+02,8.78061e-03
5.26000e+02,8.74742e-03
5.27000e+02,8.74356e-03
5.28000e+02,8.76684e-03
5.29000e+02,8.76684e-03
5.30000e+02,8.76623e-03
5.31000e+02,8.73164e-03
5.32000e+02,8.73520e-03
5.33000e+02,8.76817e-03
5.34000e+02,8.83036e-03
5.35000e+02,8.90272e-03
5.36000e+02,9.09913e-03
5.37000e+02,9.36497e-03
5.38000e+02,9.66968e-03
5.39000e+02,9.80458e-03
5.40000e+02,9.78862e-03
5.41000e+02,9.70389e-03
5.42000e+02,9.66385e-03
5.43000e+02,9.68093e-03
5.44000e+02,9.73327e-03
5.45000e+02,9.77895e-03
5.46000e+02,9.80001e-03
5.47000e+02,9.83097e-03
5.48000e+02,9.81811e-03
5.49000e+02,9.76751e-03
5.50000e+02,9.69238e-03
5.51000e+02,9.61311e-03
5.52000e+02,9.53984e-03
5.53000e+02,9.44018e-03
5.54000e+02,9.36960e-03
5.55000e+02,9.35026e-03
5.56000e+02,9.41626e-03
5.57000e+02,9.46159e-03
5.58000e+02,9.43516e-03
5.59000e+02,9.34760e-03
5.60000e+02,9.25744e-03
5.61000e+02,9.24239e-03
5.62000e+02,9.34787e-03
5.63000e+02,9.54111e-03
5.64000e+02,9.73292e-03
5.65000e+02,9.82530e-03
5.66000e+02,9.83269e-03
5.67000e+02,9.85732e-03
5.68000e+02,9.88396e-03
5.69000e+02,9.93876e-03
5.70000e+02,9.95151e-03
5.71000e+02,9.95741e-03
5.72000e+02,9.88287e-03
5.73000e+02,9.78140e-03
5.74000e+02,9.66055e-03
5.75000e+02,9.56428e-03
5.76000e+02,9.55704e-03
5.77000e+02,9.65353e-03
5.78000e+02,9.82935e-03
5.79000e+02,1.00090e-02
5.80000e+02,1.01390e-02
5.81000e+02,1.02267e-02
5.82000e+02,1.02876e-02
5.83000e+02,1.02879e-02
5.84000e+02,1.02256e-02
5.85000e+02,1.01150e-02
5.86000e+02,9.99839e-03
5.87000e+02,9.89846e-03
5.88000e+02,9.80563e-03
5.89000e+02,9.75087e-03
5.90000e+02,9.72826e-03
5.91000e+02,9.75716e-03
5.92000e+02,9.81820e-03
5.93000e+02,9.88971e-03
5.94000e+02,9.97204e-03
5.95000e+02,1.00423e-02
5.96000e+02,1.01187e-02
5.97000e+02,1.01495e-02
5.98000e+02,1.01195e-02
5.99000e+02,9.98092e-03
6.00000e+02,9.77864e-03
6.01000e+02,9.55574e-03
6.02000e+02,9.39030e-03
6.03000e+02,9.24750e-03
6.04000e+02,9.13757e-03
6.05000e+02,9.02966e-03
6.06000e+02,8.96533e-03
6.07000e+02,8.90702e-03
6.08000e+02,8.90097e-03
6.09000e+02,8.88924e-03
6.10000e+02,8.85904e-03
6.11000e+02,8.77112e-03
6.12000e+02,8.70260e-03
6.13000e+02,8.67913e-03
6.14000e+02,8.70847e-03
6.15000e+02,8.73816e-03
6.16000e+02,8.76324e-03
6.17000e+02,8.76616e-03
6.18000e+02,8.78101e-03
6.19000e+02,8.82644e-03
6.20000e+02,8.91782e-03
6.21000e+02,9.01719e-03
6.22000e+02,9.08034e-03
6.23000e+02,9.08034e-03
6.24000e+02,9.00263e-03
6.25000e+02,8.88334e-03
6.26000e+02,8.78830e-03
6.27000e+02,8.62808e-03
6.28000e+02,8.42543e-03
6.29000e+02,8.16650e-03
6.30000e+02,8.00316e-03
6.31000e+02,7.90134e-03
6.32000e+02,7.89010e-03
6.33000e+02,7.90443e-03
6.34000e+02,8.02603e-03
6.35000e+02,8.12625e-03
6.36000e+02,8.16404e-03
6.37000e+02,8.08347e-03
6.38000e+02,7.97763e-03
6.39000e+02,7.99687e-03
6.40000e+02,8.10792e-03
6.41000e+02,8.29229e-03
6.42000e+02,8.41568e-03
6.43000e+02,8.50711e-03
6.44000e+02,8.59304e-03
6.45000e+02,8.65546e-03
6.46000e+02,8.69952e-03
6.47000e+02,8.65984e-03
6.48000e+02,8.62498e-03
6.49000e+02,8.55882e-03
6.50000e+02,8.49868e-03
6.51000e+02,8.47402e-03
6.52000e+02,8.48567e-03
6.53000e+02,8.43079e-03
6.54000e+02,8.32430e-03
6.55000e+02,8.20171e-03
6.56000e+02,8.18041e-03
6.57000e+02,8.18242e-03
6.58000e+02,8.18062e-03
6.59000e+02,8.20667e-03
6.60000e+02,8.24270e-03
6.61000e+02,8.33801e-03
6.62000e+02,8.40403e-03
6.63000e+02,8.53120e-03
6.64000e+02,8.65784e-03
6.65000e+02,8.78212e-03
6.66000e+02,8.83066e-03
6.67000e+02,8.80779e-03
6.68000e+02,8.71018e-03
6.69000e+02,8.59320e-03
6.70000e+02,8.46477e-03
6.71000e+02,8.37874e-03
6.72000e+02,8.27086e-03
6.73000e+02,8.15412e-03
6.74000e+02,8.05269e-03
6.75000e+02,8.02936e-03
6.76000e+02,8.03545e-03
6.77000e+02,8.02855e-03
6.78000e+02,7.96185e-03
6.79000e+02,7.87959e-03
6.80000e+02,7.76917e-03
6.81000e+02,7.63979e-03
6.82000e+02,7.51485e-03
6.83000e+02,7.41759e-03
6.84000e+02,7.36116e-03
6.85000e+02,7.33833e-03
6.86000e+02,7.31453e-03
6.87000e+02,7.26449e-03
6.88000e+02,7.16172e-03
6.89000e+02,7.04379e-03
6.90000e+02,6.95361e-03
6.91000e+02,6.87815e-03
6.92000e+02,6.83096e-03
6.93000e+02,6.74630e-03
6.94000e+02,6.70256e-03
6.95000e+02,6.69003e-03
6.96000e+02,6.75103e-03
6.97000e+02,6.85389e-03
6.98000e+02,7.00063e-03
6.99000e+02,7.14412e-03
7.00000e+02,7.23099e-03
7.01000e+02,7.28376e-03
7.02000e+02,7.29576e-03
7.03000e+02,7.29073e-03
7.04000e+02,7.24191e-03
7.05000e+02,7.19598e-03
7.06000e+02,7.14149e-03
7.07000e+02,7.13313e-03
7.08000e+02,7.18726e-03
7.09000e+02,7.25377e-03
7.10000e+02,7.22156e-03
7.11000e+02,7.13018e-03
7.12000e+02,6.99304e-03
7.13000e+02,6.88320e-03
7.14000e+02,6.81287e-03
7.15000e+02,6.82839e-03
7.16000e+02,6.90571e-03
7.17000e+02,7.03179e-03
7.18000e+02,7.21331e-03
7.19000e+02,7.34984e-03
7.20000e+02,7.45859e-03
7.21000e+02,7.47302e-03
7.22000e+02,7.47083e-03
7.23000e+02,7.43927e-03
7.24000e+02,7.34225e-03
7.25000e+02,7.15659e-03
7.26000e+02,6.94084e-03
7.27000e+02,6.79726e-03
7.28000e+02,6.72224e-03
7.29000e+02,6.64572e-03
7.30000e+02,6.50442e-03
7.31000e+02,6.35975e-03
7.32000e+02,6.23337e-03
7.33000e+02,6.16563e-03
7.34000e+02,6.14946e-03
7.35000e+02,6.18649e-03
7.36000e+02,6.21395e-03
7.37000e+02,6.15297e-03
7.38000e+02,6.03739e-03
7.39000e+02,5.97717e-03
7.40000e+02,6.04192e-03
7.41000e+02,6.19269e-03
7.42000e+02,6.26905e-03
7.43000e+02,6.28252e-03
7.44000e+02,6.25714e-03
7.45000e+02,6.24140e-03
7.46000e+02,6.18342e-03
7.47000e+02,6.07144e-03
7.48000e+02,5.96380e-03
7.49000e+02,5.88851e-03
7.50000e+02,5.81995e-03
7.51000e+02,5.75842e-03
7.52000e+02,5.68647e-03
7.53000e+02,5.59536e-03
7.54000e+02,5.45239e-03
7.55000e+02,5.29707e-03
7.56000e+02,5.21534e-03
7.57000e+02,5.27109e-03
7.58000e+02,5.34198e-03
7.59000e+02,5.35183e-03
7.60000e+02,5.26329e-03
7.61000e+02,5.15388e-03
7.62000e+02,5.06038e-03
7.63000e+02,5.02367e-03
7.64000e+02,5.01483e-03
7.65000e+02,5.02946e-03
7.66000e+02,5.10756e-03
7.67000e+02,5.21748e-03
7.68000e+02,5.34584e-03
7.69000e+02,5.50409e-03
7.70000e+02,5.68211e-03
7.71000e+02,5.83298e-03
7.72000e+02,5.94048e-03
7.73000e+02,5.98939e-03
7.74000e+02,6.01179e-03
7.75000e+02,5.94995e-03
7.76000e+02,5.81613e-03
7.77000e+02,5.68929e-03
7.78000e+02,5.61947e-03
7.79000e+02,5.64946e-03
7.80000e+02,5.74213e-03
7.81000e+02,5.87016e-03
7.82000e+02,6.00294e-03
7.83000e+02,6.09410e-03
7.84000e+02,6.12287e-03
7.85000e+02,6.08697e-03
7.86000e+02,6.04319e-03
7.87000e+02,6.03156e-03
7.88000e+02,6.04579e-03
7.89000e+02,6.06341e-03
7.90000e+02,6.06286e-03
7.91000e+02,6.07183e-03
7.92000e+02,6.04974e-03
7.93000e+02,6.03752e-03
7.94000e+02,6.05444e-03
7.95000e+02,6.13316e-03
7.96000e+02,6.21713e-03
7.97000e+02,6.28139e-03
7.98000e+02,6.32678e-03
7.99000e+02,6.30704e-03
8.00000e+02,6.28877e-03
8.01000e+02,6.28158e-03
8.02000e+02,6.31576e-03
8.03000e+02,6.31576e-03
8.04000e+02,6.29250e-03
8.05000e+02,6.24344e-03
8.06000e+02,6.24460e-03
8.07000e+02,6.24445e-03
8.08000e+02,6.17729e-03
8.09000e+02,5.97720e-03
8.10000e+02,5.77749e-03
8.11000e+02,5.59084e-03
8.12000e+02,5.46657e-03
8.13000e+02,5.37546e-03
8.14000e+02,5.33017e-03
8.15000e+02,5.30841e-03
8.16000e+02,5.28087e-03
8.17000e+02,5.30343e-03
8.18000e+02,5.35481e-03
8.19000e+02,5.42204e-03
8.20000e+02,5.44014e-03
8.21000e+02,5.43988e-03
8.22000e+02,5.41112e-03
8.23000e+02,5.36134e-03
8.24000e+02,5.31843e-03
8.25000e+02,5.28076e-03
8.26000e+02,5.22662e-03
8.27000e+02,5.18180e-03
8.28000e+02,5.15253e-03
8.29000e+02,5.17151e-03
8.30000e+02,5.15127e-03
8.31000e+02,5.12946e-03
8.32000e+02,5.10177e-03
8.33000e+02,5.14620e-03
8.34000e+02,5.15967e-03
8.35000e+02,5.14937e-03
8.36000e+02,5.07836e-03
8.37000e+02,5.03424e-03
8.38000e+02,5.01219e-03
8.39000e+02,5.01466e-03
8.40000e+02,5.02283e-03
8.41000e+02,5.00203e-03
8.42000e+02,4.97694e-03
8.43000e+02,4.96714e-03
8.44000e+02,5.01252e-03
8.45000e+02,5.11383e-03
8.46000e+02,5.22080e-03
8.47000e+02,5.27912e-03
8.48000e+02,5.21107e-03
8.49000e+02,5.09092e-03
8.50000e+02,4.99625e-03
8.51000e+02,4.95792e-03
8.52000e+02,4.95355e-03
8.53000e+02,4.95709e-03
8.54000e+02,4.95709e-03
8.55000e+02,4.99328e-03
8.56000e+02,4.99543e-03
8.57000e+02,4.95325e-03
8.58000e+02,4.83724e-03
8.59000e+02,4.71331e-03
8.60000e+02,4.55505e-03
8.61000e+02,4.39789e-03
8.62000e+02,4.28636e-03
8.63000e+02,4.27847e-03
8.64000e+02,4.36275e-03
8.65000e+02,4.48368e-03
8.66000e+02,4.69255e-03
8.67000e+02,4.92047e-03
8.68000e+02,5.07876e-03
8.69000e+02,5.14957e-03
8.70000e+02,5.13722e-03
8.71000e+02,5.10310e-03
8.72000e+02,5.03116e-03
8.73000e+02,4.99741e-03
8.74000e+02,5.00627e-03
8.75000e+02,5.08659e-03
8.76000e+02,5.16257e-03
8.77000e+02,5.20785e-03
8.78000e+02,5.24854e-03
8.79000e+02,5.26117e-03
8.80000e+02,5.25261e-03
8.81000e+02,5.23742e-03
8.82000e+02,5.24852e-03
8.83000e+02,5.31857e-03
8.84000e+02,5.38790e-03
8.85000e+02,5.46942e-03
8.86000e+02,5.50349e-03
8.87000e+02,5.53478e-03
8.88000e+02,5.56141e-03
8.89000e+02,5.62478e-03
8.90000e+02,5.68182e-03
8.91000e+02,5.72251e-03
8.92000e+02,5.77884e-03
8.93000e+02,5.86583e-03
8.94000e+02,5.99933e-03
8.95000e+02,6.11343e-03
8.96000e+02,6.17730e-03
8.97000e+02,6.14904e-03
8.98000e+02,6.08574e-03
8.99000e+02,6.07882e-03
9.00000e+02,6.13857e-03
9.01000e+02,6.21112e-03
9.02000e+02,6.24541e-03
9.03000e+02,6.30998e-03
9.04000e+02,6.40098e-03
9.05000e+02,6.49807e-03
9.06000e+02,6.59342e-03
9.07000e+02,6.65895e-03
9.08000e+02,6.65791e-03
9.09000e+02,6.59874e-03
9.10000e+02,6.54918e-03
9.11000e+02,6.56049e-03
9.12000e+02,6.56049e-03
9.13000e+02,6.56087e-03
9.14000e+02,6.58046e-03
9.15000e+02,6.68076e-03
9.16000e+02,6.77467e-03
9.17000e+02,6.82086e-03
9.18000e+02,6.80334e-03
9.19000e+02,6.77469e-03
9.20000e+02,6.74674e-03
9.21000e+02,6.71396e-03
9.22000e+02,6.62703e-03
9.23000e+02,6.50137e-03
9.24000e+02,6.34610e-03
9.25000e+02,6.26930e-03
9.26000e+02,6.23635e-03
9.27000e+02,6.26956e-03
9.28000e+02,6.27888e-03
9.29000e+02,6.31676e-03
9.30000e+02,6.31474e-03
9.31000e+02,6.31616e-03
9.32000e+02,6.30890e-03
9.33000e+02,6.36187e-03
9.34000e+02,6.42548e-03
9.35000e+02,6.50573e-03
9.36000e+02,6.53494e-03
9.37000e+02,6.55635e-03
9.38000e+02,6.58059e-03
9.39000e+02,6.65368e-03
9.40000e+02,6.76323e-03
9.41000e+02,6.87398e-03
9.42000e+02,6.93891e-03
9.43000e+02,6.98101e-03
9.44000e+02,6.98978e-03
9.45000e+02,7.05999e-03
9.46000e+02,7.13405e-03
9.47000e+02,7.27041e-03
9.48000e+02,7.36700e-03
9.49000e+02,7.49304e-03
9.50000e+02,7.57086e-03
9.51000e+02,7.60545e-03
9.52000e+02,7.58459e-03
9.53000e+02,7.52674e-03
9.54000e+02,7.40224e-03
9.55000e+02,7.26437e-03
9.56000e+02,7.11448e-03
9.57000e+02,6.94078e-03
9.58000e+02,6.77372e-03
9.59000e+02,6.62985e-03
9.60000e+02,6.54889e-03
9.61000e+02,6.51728e-03
9.62000e+02,6.48748e-03
9.63000e+02,6.47053e-03
9.64000e+02,6.42959e-03
9.65000e+02,6.37526e-03
9.66000e+02,6.33934e-03
9.67000e+02,6.38763e-03
9.68000e+02,6.46785e-03
9.69000e+02,6.49270e-03
9.70000e+02,6.48957e-03
9.71000e+02,6.48490e-03
9.72000e+02,6.50162e-03
9.73000e+02,6.51561e-03
9.74000e+02,6.47217e-03
9.75000e+02,6.41064e-03
9.76000e+02,6.31451e-03
9.77000e+02,6.26764e-03
9.78000e+02,6.24950e-03
9.79000e+02,6.24591e-03
9.80000e+02,6.18651e-03
9.81000e+02,6.17162e-03
9.82000e+02,6.18198e-03
9.83000e+02,6.23328e-03
9.84000e+02,6.23098e-03
9.85000e+02,6.22977e-03
9.86000e+02,6.21585e-03
9.87000e+02,6.20484e-03
9.88000e+02,6.15007e-03
9.89000e+02,6.13781e-03
9.90000e+02,6.13124e-03
9.91000e+02,6.15151e-03
9.92000e+02,6.14810e-03
9.93000e+02,6.15525e-03
9.94000e+02,6.12768e-03
9.95000e+02,6.08374e-03
9.96000e+02,6.01207e-03
9.97000e+02,5.98448e-03
9.98000e+02,5.94108e-03
9.99000e+02,5.94013e-03
1.00000e+03,5.93117e-03
1.00100e+03,5.96530e-03
1.00200e+03,5.96648e-03
1.00300e+03,5.96648e-03
1.00400e+03,5.96155e-03
1.00500e+03,5.93592e-03
1.00600e+03,5.85711e-03
1.00700e+03,5.79667e-03
1.00800e+03,5.75486e-03
1.00900e+03,5.72368e-03
1.01000e+03,5.71168e-03
1.01100e+03,5.71168e-03
1.01200e+03,5.72450e-03
1.01300e+03,5.75286e-03
1.01400e+03,5.74292e-03
1.01500e+03,5.73883e-03
1.01600e+03,5.73656e-03
1.01700e+03,5.80337e-03
1.01800e+03,5.85381e-03
1.01900e+03,5.89434e-03
1.02000e+03,5.90423e-03
1.02100e+03,5.95076e-03
1.02200e+03,6.00859e-03
1.02300e+03,6.07204e-03
1.02400e+03,6.06894e-03
1.02500e+03,5.99402e-03
1.02600e+03,5.86247e-03
1.02700e+03,5.73195e-03
1.02800e+03,5.60699e-03
1.02900e+03,5.52362e-03
1.03000e+03,5.50874e-03
1.03100e+03,5.50462e-03
1.03200e+03,5.49491e-03
1.03300e+03,5.48839e-03
1.03400e+03,5.46280e-03
1.03500e+03,5.45049e-03
1.03600e+03,5.38256e-03
1.03700e+03,5.33714e-03
1.03800e+03,5.31731e-03
1.03900e+03,5.34632e-03
1.04000e+03,5.37225e-03
1.04100e+03,5.46445e-03
1.04200e+03,5.60796e-03
1.04300e+03,5.76313e-03
1.04400e+03,5.79537e-03
1.04500e+03,5.78691e-03
1.04600e+03,5.75107e-03
1.04700e+03,5.76989e-03
1.04800e+03,5.85239e-03
1.04900e+03,5.94598e-03
1.05000e+03,6.07055e-03
1.05100e+03,6.17687e-03
1.05200e+03,6.26626e-03
1.05300e+03,6.32940e-03
1.05400e+03,6.39880e-03
1.05500e+03,6.47149e-03
1.05600e+03,6.55485e-03
1.05700e+03,6.59217e-03
1.05800e+03,6.56031e-03
1.05900e+03,6.43385e-03
1.06000e+03,6.29021e-03
1.06100e+03,6.13301e-03
1.06200e+03,5.98281e-03
1.06300e+03,5.84441e-03
1.06400e+03,5.75434e-03
1.06500e+03,5.74086e-03
1.06600e+03,5.76813e-03
1.06700e+03,5.79575e-03
1.06800e+03,5.77955e-03
1.06900e+03,5.73715e-03
1.07000e+03,5.68813e-03
1.07100e+03,5.64685e-03
1.07200e+03,5.55860e-03
1.07300e+03,5.44445e-03
1.07400e+03,5.30854e-03
1.07500e+03,5.20936e-03
1.07600e+03,5.12647e-03
1.07700e+03,5.06854e-03
1.07800e+03,5.04512e-03
1.07900e+03,5.06971e-03
1.08000e+03,5.07124e-03
1.08100e+03,5.03390e-03
1.08200e+03,4.97292e-03
1.08300e+03,4.95264e-03
1.08400e+03,4.95478e-03
1.08500e+03,4.97539e-03
1.08600e+03,4.96451e-03
1.08700e+03,4.95552e-03
1.08800e+03,4.93349e-03
1.08900e+03,4.98669e-03
1.09000e+03,5.04194e-03
1.09100e+03,5.08337e-03
1.09200e+03,5.06376e-03
1.09300e+03,5.04902e-03
1.09400e+03,5.05177e-03
1.09500e+03,5.05177e-03
1.09600e+03,5.05980e-03
1.09700e+03,5.06299e-03
1.09800e+03,5.05179e-03
1.09900e+03,5.04376e-03
1.10000e+03,5.08595e-03
1.10100e+03,5.11885e-03
1.10200e+03,5.15017e-03
1.10300e+03,5.16371e-03
1.10400e+03,5.20065e-03
1.10500e+03,5.25786e-03
1.10600e+03,5.31184e-03
1.10700e+03,5.30101e-03
1.10800e+03,5.23428e-03
1.10900e+03,5.15594e-03
1.11000e+03,5.12561e-03
1.11100e+03,5.10710e-03
1.11200e+03,5.05936e-03
1.11300e+03,4.98743e-03
1.11400e+03,4.91685e-03
1.11500e+03,4.86707e-03
1.11600e+03,4.87373e-03
1.11700e+03,4.89822e-03
1.11800e+03,4.95394e-03
1.11900e+03,4.97408e-03
1.12000e+03,4.95137e-03
1.12100e+03,4.82801e-03
1.12200e+03,4.69899e-03
1.12300e+03,4.59157e-03
1.12400e+03,4.55347e-03
1.12500e+03,4.59032e-03
1.12600e+03,4.65075e-03
1.12700e+03,4.68383e-03
1.12800e+03,4.61612e-03
1.12900e+03,4.48281e-03
1.13000e+03,4.32129e-03
1.13100e+03,4.19194e-03
1.13200e+03,4.05314e-03
1.13300e+03,3.92103e-03
1.13400e+03,3.80656e-03
1.13500e+03,3.82031e-03
1.13600e+03,3.85090e-03
1.13700e+03,3.88260e-03
1.13800e+03,3.84874e-03
1.13900e+03,3.79927e-03
1.14000e+03,3.73394e-03
1.14100e+03,3.67718e-03
1.14200e+03,3.59977e-03
1.14300e+03,3.53813e-03
1.14400e+03,3.45430e-03
1.14500e+03,3.35904e-03
1.14600e+03,3.22826e-03
1.14700e+03,3.11725e-03
1.14800e+03,3.00676e-03
1.14900e+03,2.91102e-03
1.15000e+03,2.87167e-03
1.15100e+03,2.85219e-03
1.15200e+03,2.86062e-03
1.15300e+03,2.87683e-03
1.15400e+03,2.91487e-03
1.15500e+03,2.94495e-03
1.15600e+03,2.96411e-03
1.15700e+03,2.95816e-03
1.15800e+03,2.95307e-03
1.15900e+03,2.92834e-03
1.16000e+03,2.88148e-03
1.16100e+03,2.84352e-03
1.16200e+03,2.81873e-03
1.16300e+03,2.82571e-03
1.16400e+03,2.82571e-03
1.16500e+03,2.82960e-03
1.16600e+03,2.83395e-03
1.16700e+03,2.86098e-03
1.16800e+03,2.90522e-03
1.16900e+03,2.92452e-03
1.17000e+03,2.97143e-03
1.17100e+03,3.01439e-03
1.17200e+03,3.06521e-03
1.17300e+03,3.09842e-03
1.17400e+03,3.11441e-03
1.17500e+03,3.15597e-03
1.17600e+03,3.18528e-03
1.17700e+03,3.25938e-03
1.17800e+03,3.30433e-03
1.17900e+03,3.35534e-03
1.18000e+03,3.36169e-03
1.18100e+03,3.38044e-03
1.18200e+03,3.38474e-03
1.18300e+03,3.37605e-03
1.18400e+03,3.36990e-03
1.18500e+03,3.39254e-03
1.18600e+03,3.47441e-03
1.18700e+03,3.56119e-03
1.18800e+03,3.64292e-03
1.18900e+03,3.66398e-03
1.19000e+03,3.68804e-03
1.19100e+03,3.69380e-03
1.19200e+03,3.74453e-03
1.19300e+03,3.78135e-03
1.19400e+03,3.80422e-03
1.19500e+03,3.77386e-03
1.19600e+03,3.72919e-03
1.19700e+03,3.69932e-03
1.19800e+03,3.70511e-03
1.19900e+03,3.75170e-03
1.20000e+03,3.82928e-03
1.20100e+03,3.94159e-03
1.20200e+03,4.03099e-03
1.20300e+03,4.10085e-03
1.20400e+03,4.13221e-03
1.20500e+03,4.17323e-03
1.20600e+03,4.23494e-03
1.20700e+03,4.25479e-03
1.20800e+03,4.25747e-03
1.20900e+03,4.20755e-03
1.21000e+03,4.18818e-03
1.21100e+03,4.15361e-03
1.21200e+03,4.15361e-03
1.21300e+03,4.16660e-03
1.21400e+03,4.19267e-03
1.21500e+03,4.20398e-03
1.21600e+03,4.15063e-03
1.21700e+03,4.09388e-03
1.21800e+03,4.07611e-03
1.21900e+03,4.13836e-03
1.22000e+03,4.21597e-03
1.22100e+03,4.25894e-03
1.22200e+03,4.24120e-03
1.22300e+03,4.20555e-03
1.22400e+03,4.15957e-03
1.22500e+03,4.12033e-03
1.22600e+03,4.07315e-03
1.22700e+03,4.06583e-03
1.22800e+03,4.07382e-03
1.22900e+03,4.11291e-03
1.23000e+03,4.10568e-03
1.23100e+03,4.12406e-03
1.23200e+03,4.17034e-03
1.23300e+03,4.30094e-03
1.23400e+03,4.41363e-03
1.23500e+03,4.52502e-03
1.23600e+03,4.57552e-03
1.23700e+03,4.61985e-03
1.23800e+03,4.64281e-03
1.23900e+03,4.69197e-03
1.24000e+03,4.74889e-03
1.24100e+03,4.83526e-03
1.24200e+03,4.94738e-03
1.24300e+03,5.08134e-03
1.24400e+03,5.20256e-03
1.24500e+03,5.27910e-03
1.24600e+03,5.33917e-03
1.24700e+03,5.37768e-03
1.24800e+03,5.42222e-03
1.24900e+03,5.44418e-03
1.25000e+03,5.44117e-03
1.25100e+03,5.43332e-03
1.25200e+03,5.43300e-03
1.25300e+03,5.46693e-03
1.25400e+03,5.53206e-03
1.25500e+03,5.60764e-03
1.25600e+03,5.67262e-03
1.25700e+03,5.71165e-03
1.25800e+03,5.70700e-03
1.25900e+03,5.69323e-03
1.26000e+03,5.67987e-03
1.26100e+03,5.63628e-03
1.26200e+03,5.56975e-03
1.26300e+03,5.53802e-03
1.26400e+03,5.53556e-03
1.26500e+03,5.58108e-03
1.26600e+03,5.59367e-03
1.26700e+03,5.63067e-03
1.26800e+03,5.63668e-03
1.26900e+03,5.64658e-03
1.27000e+03,5.62504e-03
1.27100e+03,5.57991e-03
1.27200e+03,5.52757e-03
1.27300e+03,5.50925e-03
1.27400e+03,5.55185e-03
1.27500e+03,5.60074e-03
1.27600e+03,5.61527e-03
1.27700e+03,5.53523e-03
1.27800e+03,5.44674e-03
1.27900e+03,5.37919e-03
1.28000e+03,5.38789e-03
1.28100e+03,5.40755e-03
1.28200e+03,5.42775e-03
1.28300e+03,5.43020e-03
1.28400e+03,5.42754e-03
1.28500e+03,5.42144e-03
1.28600e+03,5.43633e-03
1.28700e+03,5.50350e-03
1.28800e+03,5.59223e-03
1.28900e+03,5.65621e-03
1.29000e+03,5.64708e-03
1.29100e+03,5.57168e-03
1.29200e+03,5.44713e-03
1.29300e+03,5.32847e-03
1.29400e+03,5.24719e-03
1.29500e+03,5.21944e-03
1.29600e+03,5.26050e-03
1.29700e+03,5.28704e-03
1.29800e+03,5.35038e-03
1.29900e+03,5.41074e-03
1.30000e+03,5.50474e-03
1.30100e+03,5.55665e-03
1.30200e+03,5.59304e-03
1.30300e+03,5.60775e-03
1.30400e+03,5.61874e-03
1.30500e+03,5.64236e-03
1.30600e+03,5.67711e-03
1.30700e+03,5.77507e-03
1.30800e+03,5.87684e-03
1.30900e+03,5.94239e-03
1.31000e+03,5.95647e-03
1.31100e+03,5.91873e-03
1.31200e+03,5.88272e-03
1.31300e+03,5.87784e-03
1.31400e+03,5.88586e-03
1.31500e+03,5.92534e-03
1.31600e+03,5.96277e-03
1.31700e+03,5.96432e-03
1.31800e+03,5.94107e-03
1.31900e+03,5.90213e-03
1.32000e+03,5.84184e-03
1.32100e+03,5.76693e-03
1.32200e+03,5.66815e-03
1.32300e+03,5.58507e-03
1.32400e+03,5.49503e-03
1.32500e+03,5.42143e-03
1.32600e+03,5.39048e-03
1.32700e+03,5.43052e-03
1.32800e+03,5.49774e-03
1.32900e+03,5.53078e-03
1.33000e+03,5.56546e-03
1.33100e+03,5.62286e-03
1.33200e+03,5.64863e-03
1.33300e+03,5.60398e-03
1.33400e+03,5.52046e-03
1.33500e+03,5.48841e-03
1.33600e+03,5.49272e-03
1.33700e+03,5.47323e-03
1.33800e+03,5.43803e-03
1.33900e+03,5.40616e-03
1.34000e+03,5.38790e-03
1.34100e+03,5.41068e-03
1.34200e+03,5.44685e-03
1.34300e+03,5.50991e-03
1.34400e+03,5.51576e-03
1.34500e+03,5.45255e-03
1.34600e+03,5.37696e-03
1.34700e+03,5.33241e-03
1.34800e+03,5.34770e-03
1.34900e+03,5.39221e-03
1.35000e+03,5.44373e-03
1.35100e+03,5.53114e-03
1.35200e+03,5.63341e-03
1.35300e+03,5.72916e-03
1.35400e+03,5.78840e-03
1.35500e+03,5.85271e-03
1.35600e+03,5.88955e-03
1.35700e+03,5.91266e-03
1.35800e+03,5.90552e-03
1.35900e+03,5.92978e-03
1.36000e+03,6.00812e-03
1.36100e+03,6.09465e-03
1.36200e+03,6.20617e-03
1.36300e+03,6.26630e-03
1.36400e+03,6.28684e-03
1.36500e+03,6.22074e-03
1.36600e+03,6.16213e-03
1.36700e+03,6.12223e-03
1.36800e+03,6.13385e-03
1.36900e+03,6.15936e-03
1.37000e+03,6.18038e-03
1.37100e+03,6.17831e-03
1.37200e+03,6.13759e-03
1.37300e+03,6.10520e-03
1.37400e+03,6.06758e-03
1.37500e+03,6.06142e-03
1.37600e+03,6.06041e-03
1.37700e+03,6.05789e-03
1.37800e+03,6.02589e-03
1.37900e+03,5.97338e-03
1.38000e+03,5.93070e-03
1.38100e+03,5.92570e-03
1.38200e+03,5.96080e-03
1.38300e+03,6.00808e-03
1.38400e+03,6.01706e-03
1.38500e+03,6.01470e-03
1.38600e+03,6.00093e-03
1.38700e+03,5.91886e-03
1.38800e+03,5.82631e-03
1.38900e+03,5.72018e-03
1.39000e+03,5.64094e-03
1.39100e+03,5.54542e-03
1.39200e+03,5.48501e-03
1.39300e+03,5.47148e-03
1.39400e+03,5.51972e-03
1.39500e+03,5.55498e-03
1.39600e+03,5.56823e-03
1.39700e+03,5.54901e-03
1.39800e+03,5.51399e-03
1.39900e+03,5.47150e-03
1.40000e+03,5.45130e-03
1.40100e+03,5.43791e-03
1.40200e+03,5.46099e-03
1.40300e+03,5.51698e-03
1.40400e+03,5.57992e-03
1.40500e+03,5.63485e-03
1.40600e+03,5.65832e-03
1.40700e+03,5.68237e-03
1.40800e+03,5.74377e-03
1.40900e+03,5.80671e-03
1.41000e+03,5.86890e-03
1.41100e+03,5.92689e-03
1.41200e+03,5.98984e-03
1.41300e+03,6.04406e-03
1.41400e+03,6.06159e-03
1.41500e+03,6.05507e-03
1.41600e+03,6.05118e-03
1.41700e+03,6.02563e-03
1.41800e+03,5.97938e-03
1.41900e+03,5.93077e-03
1.42000e+03,5.91969e-03
1.42100e+03,5.89880e-03
1.42200e+03,5.84742e-03
1.42300e+03,5.79824e-03
1.42400e+03,5.79175e-03
1.42500e+03,5.79584e-03
1.42600e+03,5.75245e-03
1.42700e+03,5.69046e-03
1.42800e+03,5.65189e-03
1.42900e+03,5.64855e-03
1.43000e+03,5.65573e-03
1.43100e+03,5.67364e-03
1.43200e+03,5.69182e-03
1.43300e+03,5.71860e-03
1.43400e+03,5.71849e-03
1.43500e+03,5.74165e-03
1.43600e+03,5.79570e-03
1.43700e+03,5.85865e-03
1.43800e+03,5.89624e-03
1.43900e+03,5.88084e-03