Pixels #,Intensity (a.u.)
0.00000e+00,1.02170e-02
1.00000e+00,1.02077e-02
2.00000e+00,1.02435e-02
3.00000e+00,1.02736e-02
4.00000e+00,1.02681e-02
5.00000e+00,1.02345e-02
6.00000e+00,1.01839e-02
7.00000e+00,1.01319e-02
8.00000e+00,1.00734e-02
9.00000e+00,9.99904e-03
1.00000e+01,9.91769e-03
1.10000e+01,9.82729e-03
1.20000e+01,9.76947e-03
1.30000e+01,9.72669e-03
1.40000e+01,9.70431e-03
1.50000e+01,9.67771e-03
1.60000e+01,9.61461e-03
1.70000e+01,9.48778e-03
1.80000e+01,9.32654e-03
1.90000e+01,9.16530e-03
2.00000e+01,9.01951e-03
2.10000e+01,8.89595e-03
2.20000e+01,8.83297e-03
2.30000e+01,8.78862e-03
2.40000e+01,8.74460e-03
2.50000e+01,8.67606e-03
2.60000e+01,8.59629e-03
2.70000e+01,8.49876e-03
2.80000e+01,8.39021e-03
2.90000e+01,8.30015e-03
3.00000e+01,8.26161e-03
3.10000e+01,8.26338e-03
3.20000e+01,8.26048e-03
3.30000e+01,8.17675e-03
3.40000e+01,8.03298e-03
3.50000e+01,7.88010e-03
3.60000e+01,7.79166e-03
3.70000e+01,7.76831e-03
3.80000e+01,7.77656e-03
3.90000e+01,7.77065e-03
4.00000e+01,7.71602e-03
4.10000e+01,7.62983e-03
4.20000e+01,7.52531e-03
4.30000e+01,7.43273e-03
4.40000e+01,7.31041e-03
4.50000e+01,7.17679e-03
4.60000e+01,7.02872e-03
4.70000e+01,6.98078e-03
4.80000e+01,7.00255e-03
4.90000e+01,7.02861e-03
5.00000e+01,7.03433e-03
5.10000e+01,7.03344e-03
5.20000e+01,7.01594e-03
5.30000e+01,7.07232e-03
5.40000e+01,7.14148e-03
5.50000e+01,7.20990e-03
5.60000e+01,7.23303e-03
5.70000e+01,7.24678e-03
5.80000e+01,7.26884e-03
5.90000e+01,7.27832e-03
6.00000e+01,7.29408e-03
6.10000e+01,7.27032e-03
6.20000e+01,7.22648e-03
6.30000e+01,7.13363e-03
6.40000e+01,7.03866e-03
6.50000e+01,6.94023e-03
6.60000e+01,6.86749e-03
6.70000e+01,6.82300e-03
6.80000e+01,6.81681e-03
6.90000e+01,6.83109e-03
7.00000e+01,6.87555e-03
7.10000e+01,6.91973e-03
7.20000e+01,6.93736e-03
7.30000e+01,6.88991e-03
7.40000e+01,6.77496e-03
7.50000e+01,6.67376e-03
7.60000e+01,6.61900e-03
7.70000e+01,6.62975e-03
7.80000e+01,6.65716e-03
7.90000e+01,6.69646e-03
8.00000e+01,6.72038e-03
8.10000e+01,6.69463e-03
8.20000e+01,6.61050e-03
8.30000e+01,6.50456e-03
8.40000e+01,6.46580e-03
8.50000e+01,6.48987e-03
8.60000e+01,6.52533e-03
8.70000e+01,6.55821e-03
8.80000e+01,6.62042e-03
8.90000e+01,6.76767e-03
9.00000e+01,6.88025e-03
9.10000e+01,6.89060e-03
9.20000e+01,6.75445e-03
9.30000e+01,6.55915e-03
9.40000e+01,6.40974e-03
9.50000e+01,6.30041e-03
9.60000e+01,6.23232e-03
9.70000e+01,6.17797e-03
9.80000e+01,6.18348e-03
9.90000e+01,6.21094e-03
1.00000e+02,6.27472e-03
1.01000e+02,6.32409e-03
1.02000e+02,6.39210e-03
1.03000e+02,6.40879e-03
1.04000e+02,6.40702e-03
1.05000e+02,6.37474e-03
1.06000e+02,6.33565e-03
1.07000e+02,6.30862e-03
1.08000e+02,6.33974e-03
1.09000e+02,6.38444e-03
1.10000e+02,6.41259e-03
1.11000e+02,6.39714e-03
1.12000e+02,6.37715e-03
1.13000e+02,6.30960e-03
1.14000e+02,6.27691e-03
1.15000e+02,6.22797e-03
1.16000e+02,6.23406e-03
1.17000e+02,6.26009e-03
1.18000e+02,6.30812e-03
1.19000e+02,6.33803e-03
1.20000e+02,6.32800e-03
1.21000e+02,6.28219e-03
1.22000e+02,6.22111e-03
1.23000e+02,6.18383e-03
1.24000e+02,6.22398e-03
1.25000e+02,6.30052e-03
1.26000e+02,6.38717e-03
1.27000e+02,6.43283e-03
1.28000e+02,6.45902e-03
1.29000e+02,6.47803e-03
1.30000e+02,6.48455e-03
1.31000e+02,6.48584e-03
1.32000e+02,6.45145e-03
1.33000e+02,6.42399e-03
1.34000e+02,6.38472e-03
1.35000e+02,6.38768e-03
1.36000e+02,6.40554e-03
1.37000e+02,6.44025e-03
1.38000e+02,6.46018e-03
1.39000e+02,6.46364e-03
1.40000e+02,6.47095e-03
1.41000e+02,6.45805e-03
1.42000e+02,6.42842e-03
1.43000e+02,6.38549e-03
1.44000e+02,6.35020e-03
1.45000e+02,6.32188e-03
1.46000e+02,6.32356e-03
1.47000e+02,6.37793e-03
1.48000e+02,6.46852e-03
1.49000e+02,6.54230e-03
1.50000e+02,6.60339e-03
1.51000e+02,6.60176e-03
1.52000e+02,6.58334e-03
1.53000e+02,6.53056e-03
1.54000e+02,6.54389e-03
1.55000e+02,6.61844e-03
1.56000e+02,6.74020e-03
1.57000e+02,6.86150e-03
1.58000e+02,6.96705e-03
1.59000e+02,7.06214e-03
1.60000e+02,7.15313e-03
1.61000e+02,7.18764e-03
1.62000e+02,7.20318e-03
1.63000e+02,7.21507e-03
1.64000e+02,7.27784e-03
1.65000e+02,7.36964e-03
1.66000e+02,7.43744e-03
1.67000e+02,7.46720e-03
1.68000e+02,7.49335e-03
1.69000e+02,7.54610e-03
1.70000e+02,7.61666e-03
1.71000e+02,7.64044e-03
1.72000e+02,7.64007e-03
1.73000e+02,7.61788e-03
1.74000e+02,7.60887e-03
1.75000e+02,7.57482e-03
1.76000e+02,7.53144e-03
1.77000e+02,7.49022e-03
1.78000e+02,7.45790e-03
1.79000e+02,7.41653e-03
1.80000e+02,7.32174e-03
1.81000e+02,7.23500e-03
1.82000e+02,7.20782e-03
1.83000e+02,7.27840e-03
1.84000e+02,7.38837e-03
1.85000e+02,7.47265e-03
1.86000e+02,7.54101e-03
1.87000e+02,7.58082e-03
1.88000e+02,7.58848e-03
1.89000e+02,7.53154e-03
1.90000e+02,7.45989e-03
1.91000e+02,7.38905e-03
1.92000e+02,7.37514e-03
1.93000e+02,7.38329e-03
1.94000e+02,7.43691e-03
1.95000e+02,7.45951e-03
1.96000e+02,7.45706e-03
1.97000e+02,7.41337e-03
1.98000e+02,7.36670e-03
1.99000e+02,7.31651e-03
2.00000e+02,7.28873e-03
2.01000e+02,7.31256e-03
2.02000e+02,7.36238e-03
2.03000e+02,7.38701e-03
2.04000e+02,7.35630e-03
2.05000e+02,7.27210e-03
2.06000e+02,7.21716e-03
2.07000e+02,7.16557e-03
2.08000e+02,7.14707e-03
2.09000e+02,7.14619e-03
2.10000e+02,7.17598e-03
2.11000e+02,7.20293e-03
2.12000e+02,7.19177e-03
2.13000e+02,7.16642e-03
2.14000e+02,7.14686e-03
2.15000e+02,7.13275e-03
2.16000e+02,7.15494e-03
2.17000e+02,7.17594e-03
2.18000e+02,7.19182e-03
2.19000e+02,7.15573e-03
2.20000e+02,7.09866e-03
2.21000e+02,7.04062e-03
2.22000e+02,6.99160e-03
2.23000e+02,6.95093e-03
2.24000e+02,6.92294e-03
2.25000e+02,6.93468e-03
2.26000e+02,6.96128e-03
2.27000e+02,6.99576e-03
2.28000e+02,7.02524e-03
2.29000e+02,7.08753e-03
2.30000e+02,7.18546e-03
2.31000e+02,7.30321e-03
2.32000e+02,7.40582e-03
2.33000e+02,7.47245e-03
2.34000e+02,7.50267e-03
2.35000e+02,7.50696e-03
2.36000e+02,7.50488e-03
2.37000e+02,7.49381e-03
2.38000e+02,7.47540e-03
2.39000e+02,7.45856e-03
2.40000e+02,7.45361e-03
2.41000e+02,7.44899e-03
2.42000e+02,7.45790e-03
2.43000e+02,7.46613e-03
2.44000e+02,7.49374e-03
2.45000e+02,7.47514e-03
2.46000e+02,7.40969e-03
2.47000e+02,7.29933e-03
2.48000e+02,7.18578e-03
2.49000e+02,7.08023e-03
2.50000e+02,7.00057e-03
2.51000e+02,6.90271e-03
2.52000e+02,6.85196e-03
2.53000e+02,6.79804e-03
2.54000e+02,6.76741e-03
2.55000e+02,6.68750e-03
2.56000e+02,6.61722e-03
2.57000e+02,6.56073e-03
2.58000e+02,6.55222e-03
2.59000e+02,6.55015e-03
2.60000e+02,6.53382e-03
2.61000e+02,6.50953e-03
2.62000e+02,6.50898e-03
2.63000e+02,6.54121e-03
2.64000e+02,6.57784e-03
2.65000e+02,6.62100e-03
2.66000e+02,6.69743e-03
2.67000e+02,6.78471e-03
2.68000e+02,6.87139e-03
2.69000e+02,6.91206e-03
2.70000e+02,6.93256e-03
2.71000e+02,6.94279e-03
2.72000e+02,6.97565e-03
2.73000e+02,7.01766e-03
2.74000e+02,7.01778e-03
2.75000e+02,6.98467e-03
2.76000e+02,6.92690e-03
2.77000e+02,6.89081e-03
2.78000e+02,6.87623e-03
2.79000e+02,6.89544e-03
2.80000e+02,6.93107e-03
2.81000e+02,6.97179e-03
2.82000e+02,6.97297e-03
2.83000e+02,6.91347e-03
2.84000e+02,6.82085e-03
2.85000e+02,6.71359e-03
2.86000e+02,6.67418e-03
2.87000e+02,6.65592e-03
2.88000e+02,6.69209e-03
2.89000e+02,6.73448e-03
2.90000e+02,6.79464e-03
2.91000e+02,6.84932e-03
2.92000e+02,6.89051e-03
2.93000e+02,6.95189e-03
2.94000e+02,7.03947e-03
2.95000e+02,7.15254e-03
2.96000e+02,7.22845e-03
2.97000e+02,7.26925e-03
2.98000e+02,7.25511e-03
2.99000e+02,7.17615e-03
3.00000e+02,7.06529e-03
3.01000e+02,6.96299e-03
3.02000e+02,6.92534e-03
3.03000e+02,6.90182e-03
3.04000e+02,6.82860e-03
3.05000e+02,6.72710e-03
3.06000e+02,6.62587e-03
3.07000e+02,6.56682e-03
3.08000e+02,6.53320e-03
3.09000e+02,6.47849e-03
3.10000e+02,6.36154e-03
3.11000e+02,6.23012e-03
3.12000e+02,6.12682e-03
3.13000e+02,6.07951e-03
3.14000e+02,6.12116e-03
3.15000e+02,6.16147e-03
3.16000e+02,6.14469e-03
3.17000e+02,6.10880e-03
3.18000e+02,6.03717e-03
3.19000e+02,5.99289e-03
3.20000e+02,5.87659e-03
3.21000e+02,5.80184e-03
3.22000e+02,5.77208e-03
3.23000e+02,5.87401e-03
3.24000e+02,6.00662e-03
3.25000e+02,6.13664e-03
3.26000e+02,6.21328e-03
3.27000e+02,6.25588e-03
3.28000e+02,6.28462e-03
3.29000e+02,6.27020e-03
3.30000e+02,6.18205e-03
3.31000e+02,6.08888e-03
3.32000e+02,6.02035e-03
3.33000e+02,6.00365e-03
3.34000e+02,6.02524e-03
3.35000e+02,6.01587e-03
3.36000e+02,6.02743e-03
3.37000e+02,6.08693e-03
3.38000e+02,6.24167e-03
3.39000e+02,6.43295e-03
3.40000e+02,6.63529e-03
3.41000e+02,6.75434e-03
3.42000e+02,6.83495e-03
3.43000e+02,6.84644e-03
3.44000e+02,6.91135e-03
3.45000e+02,6.95885e-03
3.46000e+02,7.03187e-03
3.47000e+02,7.03637e-03
3.48000e+02,7.02670e-03
3.49000e+02,6.93960e-03
3.50000e+02,6.83779e-03
3.51000e+02,6.71898e-03
3.52000e+02,6.64779e-03
3.53000e+02,6.63857e-03
3.54000e+02,6.64046e-03
3.55000e+02,6.59687e-03
3.56000e+02,6.46944e-03
3.57000e+02,6.30492e-03
3.58000e+02,6.14319e-03
3.59000e+02,6.03510e-03
3.60000e+02,6.03520e-03
3.61000e+02,6.07201e-03
3.62000e+02,6.09188e-03
3.63000e+02,6.06489e-03
3.64000e+02,5.99245e-03
3.65000e+02,5.95845e-03
3.66000e+02,5.93027e-03
3.67000e+02,5.95765e-03
3.68000e+02,6.01729e-03
3.69000e+02,6.12574e-03
3.70000e+02,6.24751e-03
3.71000e+02,6.34736e-03
3.72000e+02,6.35825e-03
3.73000e+02,6.34476e-03
3.74000e+02,6.34665e-03
3.75000e+02,6.43969e-03
3.76000e+02,6.55343e-03
3.77000e+02,6.59869e-03
3.78000e+02,6.59542e-03
3.79000e+02,6.53003e-03
3.80000e+02,6.48499e-03
3.81000e+02,6.40948e-03
3.82000e+02,6.33790e-03
3.83000e+02,6.24471e-03
3.84000e+02,6.13351e-03
3.85000e+02,6.04217e-03
3.86000e+02,6.00464e-03
3.87000e+02,6.07505e-03
3.88000e+02,6.15471e-03
3.89000e+02,6.23789e-03
3.90000e+02,6.29850e-03
3.91000e+02,6.35142e-03
3.92000e+02,6.38777e-03
3.93000e+02,6.39799e-03
3.94000e+02,6.43355e-03
3.95000e+02,6.50674e-03
3.96000e+02,6.57218e-03
3.97000e+02,6.62835e-03
3.98000e+02,6.65445e-03
3.99000e+02,6.67630e-03
4.00000e+02,6.73163e-03
4.01000e+02,6.81920e-03
4.02000e+02,6.90519e-03
4.03000e+02,6.95781e-03
4.04000e+02,7.00227e-03
4.05000e+02,6.98635e-03
4.06000e+02,6.97452e-03
4.07000e+02,6.99325e-03
4.08000e+02,7.01677e-03
4.09000e+02,7.06393e-03
4.10000e+02,7.04353e-03
4.11000e+02,7.05096e-03
4.12000e+02,7.00736e-03
4.13000e+02,6.96008e-03
4.14000e+02,6.82645e-03
4.15000e+02,6.70452e-03
4.16000e+02,6.61088e-03
4.17000e+02,6.59094e-03
4.18000e+02,6.60570e-03
4.19000e+02,6.64156e-03
4.20000e+02,6.68875e-03
4.21000e+02,6.75168e-03
4.22000e+02,6.77871e-03
4.23000e+02,6.79719e-03
4.24000e+02,6.79635e-03
4.25000e+02,6.75754e-03
4.26000e+02,6.75141e-03
4.27000e+02,6.77300e-03
4.28000e+02,6.81875e-03
4.29000e+02,6.83520e-03
4.30000e+02,6.83463e-03
4.31000e+02,6.78968e-03
4.32000e+02,6.72126e-03
4.33000e+02,6.62607e-03
4.34000e+02,6.58006e-03
4.35000e+02,6.50018e-03
4.36000e+02,6.42562e-03
4.37000e+02,6.33742e-03
4.38000e+02,6.29752e-03
4.39000e+02,6.29937e-03
4.40000e+02,6.40704e-03
4.41000e+02,6.55661e-03
4.42000e+02,6.68211e-03
4.43000e+02,6.72889e-03
4.44000e+02,6.68434e-03
4.45000e+02,6.59351e-03
4.46000e+02,6.54703e-03
4.47000e+02,6.58813e-03
4.48000e+02,6.71062e-03
4.49000e+02,6.87106e-03
4.50000e+02,6.99674e-03
4.51000e+02,7.00466e-03
4.52000e+02,6.92373e-03
4.53000e+02,6.84119e-03
4.54000e+02,6.80247e-03
4.55000e+02,6.84028e-03
4.56000e+02,6.92153e-03
4.57000e+02,7.00806e-03
4.58000e+02,7.06101e-03
4.59000e+02,7.04400e-03
4.60000e+02,6.98784e-03
4.61000e+02,6.88073e-03
4.62000e+02,6.76477e-03
4.63000e+02,6.69411e-03
4.64000e+02,6.65309e-03
4.65000e+02,6.63301e-03
4.66000e+02,6.55747e-03
4.67000e+02,6.51138e-03
4.68000e+02,6.51908e-03
4.69000e+02,6.56114e-03
4.70000e+02,6.58920e-03
4.71000e+02,6.57774e-03
4.72000e+02,6.58295e-03
4.73000e+02,6.65275e-03
4.74000e+02,6.78328e-03
4.75000e+02,6.96368e-03
4.76000e+02,7.07923e-03
4.77000e+02,7.12171e-03
4.78000e+02,7.02511e-03
4.79000e+02,6.91828e-03
4.80000e+02,6.85418e-03
4.81000e+02,6.90661e-03
4.82000e+02,7.00719e-03
4.83000e+02,7.08262e-03
4.84000e+02,7.09023e-03
4.85000e+02,7.08429e-03
4.86000e+02,7.10006e-03
4.87000e+02,7.14249e-03
4.88000e+02,7.16607e-03
4.89000e+02,7.13003e-03
4.90000e+02,7.07228e-03
4.91000e+02,6.95733e-03
4.92000e+02,6.88161e-03
4.93000e+02,6.79833e-03
4.94000e+02,6.78714e-03
4.95000e+02,6.79471e-03
4.96000e+02,6.83424e-03
4.97000e+02,6.86623e-03
4.98000e+02,6.91839e-03
4.99000e+02,7.01948e-03
5.00000e+02,7.12173e-03
5.01000e+02,7.19230e-03
5.02000e+02,7.24053e-03
5.03000e+02,7.26799e-03
5.04000e+02,7.28810e-03
5.05000e+02,7.25550e-03
5.06000e+02,7.23024e-03
5.07000e+02,7.24430e-03
5.08000e+02,7.31733e-03
5.09000e+02,7.42685e-03
5.10000e+02,7.50210e-03
5.11000e+02,7.56581e-03
5.12000e+02,7.64359e-03
5.13000e+02,7.79020e-03
5.14000e+02,7.94145e-03
5.15000e+02,8.07254e-03
5.16000e+02,8.16816e-03
5.17000e+02,8.21446e-03
5.18000e+02,8.22053e-03
5.19000e+02,8.15797e-03
5.20000e+02,8.09035e-03
5.21000e+02,8.00861e-03
5.22000e+02,7.97377e-03
5.23000e+02,7.96833e-03
5.24000e+02,7.99925e-03
5.25000e+02,7.98354e-03
5.26000e+02,7.97924e-03
5.27000e+02,7.98034e-03
5.28000e+02,8.02673e-03
5.29000e+02,8.05264e-03
5.30000e+02,8.06222e-03
5.31000e+02,8.05137e-03
5.32000e+02,8.04405e-03
5.33000e+02,8.07221e-03
5.34000e+02,8.14673e-03
5.35000e+02,8.28627e-03
5.36000e+02,8.53251e-03
5.37000e+02,8.80119e-03
5.38000e+02,9.04367e-03
5.39000e+02,9.14700e-03
5.40000e+02,9.14468e-03
5.41000e+02,9.05766e-03
5.42000e+02,8.98065e-03
5.43000e+02,8.97915e-03
5.44000e+02,9.06382e-03
5.45000e+02,9.20333e-03
5.46000e+02,9.31232e-03
5.47000e+02,9.35951e-03
5.48000e+02,9.34125e-03
5.49000e+02,9.25411e-03
5.50000e+02,9.13275e-03
5.51000e+02,8.99569e-03
5.52000e+02,8.91283e-03
5.53000e+02,8.86376e-03
5.54000e+02,8.95296e-03
5.55000e+02,9.08456e-03
5.56000e+02,9.23166e-03
5.57000e+02,9.31692e-03
5.58000e+02,9.33134e-03
5.59000e+02,9.29918e-03
5.60000e+02,9.27506e-03
5.61000e+02,9.30460e-03
5.62000e+02,9.42125e-03
5.63000e+02,9.59520e-03
5.64000e+02,9.73620e-03
5.65000e+02,9.77186e-03
5.66000e+02,9.73623e-03
5.67000e+02,9.68683e-03
5.68000e+02,9.64045e-03
5.69000e+02,9.62064e-03
5.70000e+02,9.59368e-03
5.71000e+02,9.54405e-03
5.72000e+02,9.42098e-03
5.73000e+02,9.28203e-03
5.74000e+02,9.17199e-03
5.75000e+02,9.15246e-03
5.76000e+02,9.21411e-03
5.77000e+02,9.34177e-03
5.78000e+02,9.50324e-03
5.79000e+02,9.62928e-03
5.80000e+02,9.70091e-03
5.81000e+02,9.74891e-03
5.82000e+02,9.84366e-03
5.83000e+02,9.95359e-03
5.84000e+02,1.00317e-02
5.85000e+02,1.00223e-02
5.86000e+02,9.97219e-03
5.87000e+02,9.95137e-03
5.88000e+02,9.94269e-03
5.89000e+02,9.96030e-03
5.90000e+02,9.92619e-03
5.91000e+02,9.88955e-03
5.92000e+02,9.91474e-03
5.93000e+02,9.99725e-03
5.94000e+02,1.01250e-02
5.95000e+02,1.01920e-02
5.96000e+02,1.02713e-02
5.97000e+02,1.03452e-02
5.98000e+02,1.03888e-02
5.99000e+02,1.03210e-02
6.00000e+02,1.01778e-02
6.01000e+02,1.00339e-02
6.02000e+02,9.97864e-03
6.03000e+02,9.93213e-03
6.04000e+02,9.83591e-03
6.05000e+02,9.66396e-03
6.06000e+02,9.49937e-03
6.07000e+02,9.38121e-03
6.08000e+02,9.31107e-03
6.09000e+02,9.24817e-03
6.10000e+02,9.18759e-03
6.11000e+02,9.10707e-03
6.12000e+02,9.07219e-03
6.13000e+02,9.03912e-03
6.14000e+02,9.00700e-03
6.15000e+02,8.99734e-03
6.16000e+02,9.00169e-03
6.17000e+02,9.01597e-03
6.18000e+02,9.02645e-03
6.19000e+02,9.05433e-03
6.20000e+02,9.10947e-03
6.21000e+02,9.17194e-03
6.22000e+02,9.18338e-03
6.23000e+02,9.16655e-03
6.24000e+02,9.09079e-03
6.25000e+02,8.95735e-03
6.26000e+02,8.77659e-03
6.27000e+02,8.54727e-03
6.28000e+02,8.32652e-03
6.29000e+02,8.09537e-03
6.30000e+02,7.93557e-03
6.31000e+02,7.82392e-03
6.32000e+02,7.82785e-03
6.33000e+02,7.93765e-03
6.34000e+02,8.17453e-03
6.35000e+02,8.36113e-03
6.36000e+02,8.40944e-03
6.37000e+02,8.30317e-03
6.38000e+02,8.15710e-03
6.39000e+02,8.13418e-03
6.40000e+02,8.18427e-03
6.41000e+02,8.30732e-03
6.42000e+02,8.35880e-03
6.43000e+02,8.35724e-03
6.44000e+02,8.32894e-03
6.45000e+02,8.20068e-03
6.46000e+02,8.08260e-03
6.47000e+02,8.00389e-03
6.48000e+02,7.95500e-03
6.49000e+02,7.87977e-03
6.50000e+02,7.78129e-03
6.51000e+02,7.71945e-03
6.52000e+02,7.70537e-03
6.53000e+02,7.67153e-03
6.54000e+02,7.59068e-03
6.55000e+02,7.45981e-03
6.56000e+02,7.39026e-03
6.57000e+02,7.33946e-03
6.58000e+02,7.34705e-03
6.59000e+02,7.42611e-03
6.60000e+02,7.55253e-03
6.61000e+02,7.70728e-03
6.62000e+02,7.84733e-03
6.63000e+02,8.01710e-03
6.64000e+02,8.20080e-03
6.65000e+02,8.34501e-03
6.66000e+02,8.39786e-03
6.67000e+02,8.36120e-03
6.68000e+02,8.29271e-03
6.69000e+02,8.22667e-03
6.70000e+02,8.19128e-03
6.71000e+02,8.19753e-03
6.72000e+02,8.18645e-03
6.73000e+02,8.13115e-03
6.74000e+02,8.00965e-03
6.75000e+02,7.92887e-03
6.76000e+02,7.89627e-03
6.77000e+02,7.88280e-03
6.78000e+02,7.84487e-03
6.79000e+02,7.79623e-03
6.80000e+02,7.70288e-03
6.81000e+02,7.59274e-03
6.82000e+02,7.47166e-03
6.83000e+02,7.37734e-03
6.84000e+02,7.29811e-03
6.85000e+02,7.27959e-03
6.86000e+02,7.27812e-03
6.87000e+02,7.24282e-03
6.88000e+02,7.09373e-03
6.89000e+02,6.93065e-03
6.90000e+02,6.81751e-03
6.91000e+02,6.74435e-03
6.92000e+02,6.68941e-03
6.93000e+02,6.58043e-03
6.94000e+02,6.55406e-03
6.95000e+02,6.62136e-03
6.96000e+02,6.77144e-03
6.97000e+02,6.91583e-03
6.98000e+02,7.05979e-03
6.99000e+02,7.21048e-03
7.00000e+02,7.31680e-03
7.01000e+02,7.37902e-03
7.02000e+02,7.35957e-03
7.03000e+02,7.28372e-03
7.04000e+02,7.19423e-03
7.05000e+02,7.15166e-03
7.06000e+02,7.11173e-03
7.07000e+02,7.16185e-03
7.08000e+02,7.25636e-03
7.09000e+02,7.37758e-03
7.10000e+02,7.40063e-03
7.11000e+02,7.31461e-03
7.12000e+02,7.19512e-03
7.13000e+02,7.10141e-03
7.14000e+02,7.01563e-03
7.15000e+02,6.99832e-03
7.16000e+02,7.01962e-03
7.17000e+02,7.07302e-03
7.18000e+02,7.18863e-03
7.19000e+02,7.31583e-03
7.20000e+02,7.48776e-03
7.21000e+02,7.61938e-03
7.22000e+02,7.69717e-03
7.23000e+02,7.68881e-03
7.24000e+02,7.54033e-03
7.25000e+02,7.27675e-03
7.26000e+02,7.00548e-03
7.27000e+02,6.83566e-03
7.28000e+02,6.77326e-03
7.29000e+02,6.76406e-03
7.30000e+02,6.69420e-03
7.31000e+02,6.64290e-03
7.32000e+02,6.58295e-03
7.33000e+02,6.59491e-03
7.34000e+02,6.66426e-03
7.35000e+02,6.80220e-03
7.36000e+02,6.94469e-03
7.37000e+02,6.99033e-03
7.38000e+02,6.88475e-03
7.39000e+02,6.79402e-03
7.40000e+02,6.77171e-03
7.41000e+02,6.84316e-03
7.42000e+02,6.85041e-03
7.43000e+02,6.82523e-03
7.44000e+02,6.75656e-03
7.45000e+02,6.71812e-03
7.46000e+02,6.68799e-03
7.47000e+02,6.62951e-03
7.48000e+02,6.55129e-03
7.49000e+02,6.44617e-03
7.50000e+02,6.35319e-03
7.51000e+02,6.27691e-03
7.52000e+02,6.20762e-03
7.53000e+02,6.09176e-03
7.54000e+02,5.92198e-03
7.55000e+02,5.74119e-03
7.56000e+02,5.65244e-03
7.57000e+02,5.65911e-03
7.58000e+02,5.65202e-03
7.59000e+02,5.54789e-03
7.60000e+02,5.35384e-03
7.61000e+02,5.18112e-03
7.62000e+02,5.05603e-03
7.63000e+02,4.97261e-03
7.64000e+02,4.91735e-03
7.65000e+02,4.91878e-03
7.66000e+02,5.00500e-03
7.67000e+02,5.15854e-03
7.68000e+02,5.33035e-03
7.69000e+02,5.47946e-03
7.70000e+02,5.57352e-03
7.71000e+02,5.63332e-03
7.72000e+02,5.69546e-03
7.73000e+02,5.77113e-03
7.74000e+02,5.81975e-03
7.75000e+02,5.77830e-03
7.76000e+02,5.62242e-03
7.77000e+02,5.46353e-03
7.78000e+02,5.38676e-03
7.79000e+02,5.50055e-03
7.80000e+02,5.64695e-03
7.81000e+02,5.75787e-03
7.82000e+02,5.81620e-03
7.83000e+02,5.83879e-03
7.84000e+02,5.83879e-03
7.85000e+02,5.77097e-03
7.86000e+02,5.63206e-03
7.87000e+02,5.52992e-03
7.88000e+02,5.45823e-03
7.89000e+02,5.38183e-03
7.90000e+02,5.26553e-03
7.91000e+02,5.18805e-03
7.92000e+02,5.12083e-03
7.93000e+02,5.10583e-03
7.94000e+02,5.09984e-03
7.95000e+02,5.12914e-03
7.96000e+02,5.15448e-03
7.97000e+02,5.16323e-03
7.98000e+02,5.10968e-03
7.99000e+02,5.01714e-03
8.00000e+02,4.92014e-03
8.01000e+02,4.84307e-03
8.02000e+02,4.86594e-03
8.03000e+02,4.86594e-03
8.04000e+02,4.86733e-03
8.05000e+02,4.86371e-03
8.06000e+02,4.91094e-03
8.07000e+02,4.96398e-03
8.08000e+02,4.98364e-03
8.09000e+02,4.87904e-03
8.10000e+02,4.72222e-03
8.11000e+02,4.50485e-03
8.12000e+02,4.30720e-03
8.13000e+02,4.17566e-03
8.14000e+02,4.10434e-03
8.15000e+02,4.10434e-03
8.16000e+02,4.10434e-03
8.17000e+02,4.12739e-03
8.18000e+02,4.19856e-03
8.19000e+02,4.30091e-03
8.20000e+02,4.35183e-03
8.21000e+02,4.36683e-03
8.22000e+02,4.35026e-03
8.23000e+02,4.34397e-03
8.24000e+02,4.32619e-03
8.25000e+02,4.30087e-03
8.26000e+02,4.22078e-03
8.27000e+02,4.14677e-03
8.28000e+02,4.10683e-03
8.29000e+02,4.16970e-03
8.30000e+02,4.23704e-03
8.31000e+02,4.31538e-03
8.32000e+02,4.36660e-03
8.33000e+02,4.45968e-03
8.34000e+02,4.50789e-03
8.35000e+02,4.52248e-03
8.36000e+02,4.46260e-03
8.37000e+02,4.41281e-03
8.38000e+02,4.37464e-03
8.39000e+02,4.38087e-03
8.40000e+02,4.40399e-03
8.41000e+02,4.43137e-03
8.42000e+02,4.45290e-03
8.43000e+02,4.48655e-03
8.44000e+02,4.59234e-03
8.45000e+02,4.75655e-03
8.46000e+02,4.90633e-03
8.47000e+02,4.96973e-03
8.48000e+02,4.92137e-03
8.49000e+02,4.83585e-03
8.50000e+02,4.78852e-03
8.51000e+02,4.78145e-03
8.52000e+02,4.78386e-03
8.53000e+02,4.81240e-03
8.54000e+02,4.84284e-03
8.55000e+02,4.90641e-03
8.56000e+02,4.93276e-03
8.57000e+02,4.89361e-03
8.58000e+02,4.74007e-03
8.59000e+02,4.58708e-03
8.60000e+02,4.43144e-03
8.61000e+02,4.34080e-03
8.62000e+02,4.30409e-03
8.63000e+02,4.38318e-03
8.64000e+02,4.53765e-03
8.65000e+02,4.72486e-03
8.66000e+02,4.94764e-03
8.67000e+02,5.17403e-03
8.68000e+02,5.32868e-03
8.69000e+02,5.39698e-03
8.70000e+02,5.34178e-03
8.71000e+02,5.28609e-03
8.72000e+02,5.26245e-03
8.73000e+02,5.29754e-03
8.74000e+02,5.34631e-03
8.75000e+02,5.39317e-03
8.76000e+02,5.43802e-03
8.77000e+02,5.51411e-03
8.78000e+02,5.61845e-03
8.79000e+02,5.70484e-03
8.80000e+02,5.77754e-03
8.81000e+02,5.83731e-03
8.82000e+02,5.89571e-03
8.83000e+02,6.00070e-03
8.84000e+02,6.13241e-03
8.85000e+02,6.28633e-03
8.86000e+02,6.37722e-03
8.87000e+02,6.43162e-03
8.88000e+02,6.48780e-03
8.89000e+02,6.63357e-03
8.90000e+02,6.79384e-03
8.91000e+02,6.94624e-03
8.92000e+02,7.07337e-03
8.93000e+02,7.18313e-03
8.94000e+02,7.29513e-03
8.95000e+02,7.35233e-03
8.96000e+02,7.36249e-03
8.97000e+02,7.27038e-03
8.98000e+02,7.16728e-03
8.99000e+02,7.11351e-03
9.00000e+02,7.13226e-03
9.01000e+02,7.17318e-03
9.02000e+02,7.20454e-03
9.03000e+02,7.28204e-03
9.04000e+02,7.38544e-03
9.05000e+02,7.52975e-03
9.06000e+02,7.65120e-03
9.07000e+02,7.74039e-03
9.08000e+02,7.75425e-03
9.09000e+02,7.67371e-03
9.10000e+02,7.57392e-03
9.11000e+02,7.52740e-03
9.12000e+02,7.48648e-03
9.13000e+02,7.44266e-03
9.14000e+02,7.38605e-03
9.15000e+02,7.40852e-03
9.16000e+02,7.45930e-03
9.17000e+02,7.53252e-03
9.18000e+02,7.55866e-03
9.19000e+02,7.59935e-03
9.20000e+02,7.60607e-03
9.21000e+02,7.62314e-03
9.22000e+02,7.59151e-03
9.23000e+02,7.51860e-03
9.24000e+02,7.39571e-03
9.25000e+02,7.31247e-03
9.26000e+02,7.27342e-03
9.27000e+02,7.30039e-03
9.28000e+02,7.32028e-03
9.29000e+02,7.37521e-03
9.30000e+02,7.37835e-03
9.31000e+02,7.35284e-03
9.32000e+02,7.26774e-03
9.33000e+02,7.18735e-03
9.34000e+02,7.14556e-03
9.35000e+02,7.13333e-03
9.36000e+02,7.09125e-03
9.37000e+02,7.04985e-03
9.38000e+02,7.06786e-03
9.39000e+02,7.18482e-03
9.40000e+02,7.34610e-03
9.41000e+02,7.46265e-03
9.42000e+02,7.50455e-03
9.43000e+02,7.50214e-03
9.44000e+02,7.47359e-03
9.45000e+02,7.46399e-03
9.46000e+02,7.46470e-03
9.47000e+02,7.54590e-03
9.48000e+02,7.64305e-03
9.49000e+02,7.81605e-03
9.50000e+02,7.95714e-03
9.51000e+02,8.05019e-03
9.52000e+02,8.05804e-03
9.53000e+02,8.01549e-03
9.54000e+02,7.86493e-03
9.55000e+02,7.65397e-03
9.56000e+02,7.44376e-03
9.57000e+02,7.25788e-03
9.58000e+02,7.07785e-03
9.59000e+02,6.93167e-03
9.60000e+02,6.83293e-03
9.61000e+02,6.76743e-03
9.62000e+02,6.70816e-03
9.63000e+02,6.65455e-03
9.64000e+02,6.59938e-03
9.65000e+02,6.55730e-03
9.66000e+02,6.57782e-03
9.67000e+02,6.67300e-03
9.68000e+02,6.79525e-03
9.69000e+02,6.83621e-03
9.70000e+02,6.82609e-03
9.71000e+02,6.76235e-03
9.72000e+02,6.71435e-03
9.73000e+02,6.68016e-03
9.74000e+02,6.64050e-03
9.75000e+02,6.57611e-03
9.76000e+02,6.46857e-03
9.77000e+02,6.40079e-03
9.78000e+02,6.36440e-03
9.79000e+02,6.33784e-03
9.80000e+02,6.21009e-03
9.81000e+02,6.07297e-03
9.82000e+02,5.95267e-03
9.83000e+02,5.91504e-03
9.84000e+02,5.89721e-03
9.85000e+02,5.91123e-03
9.86000e+02,5.91800e-03
9.87000e+02,5.91081e-03
9.88000e+02,5.89508e-03
9.89000e+02,5.93090e-03
9.90000e+02,5.98491e-03
9.91000e+02,6.01603e-03
9.92000e+02,6.00599e-03
9.93000e+02,6.00365e-03
9.94000e+02,5.96249e-03
9.95000e+02,5.88311e-03
9.96000e+02,5.74919e-03
9.97000e+02,5.67747e-03
9.98000e+02,5.64413e-03
9.99000e+02,5.70825e-03
1.00000e+03,5.79513e-03
1.00100e+03,5.90742e-03
1.00200e+03,5.92280e-03
1.00300e+03,5.92280e-03
1.00400e+03,5.92280e-03
1.00500e+03,5.95266e-03
1.00600e+03,5.99183e-03
1.00700e+03,6.01905e-03
1.00800e+03,6.00335e-03
1.00900e+03,5.95446e-03
1.01000e+03,5.86812e-03
1.01100e+03,5.79804e-03
1.01200e+03,5.70684e-03
1.01300e+03,5.61986e-03
1.01400e+03,5.56191e-03
1.01500e+03,5.54578e-03
1.01600e+03,5.56186e-03
1.01700e+03,5.60897e-03
1.01800e+03,5.61438e-03
1.01900e+03,5.60208e-03
1.02000e+03,5.57626e-03
1.02100e+03,5.64491e-03
1.02200e+03,5.77471e-03
1.02300e+03,5.91449e-03
1.02400e+03,6.00933e-03
1.02500e+03,6.00338e-03
1.02600e+03,5.90042e-03
1.02700e+03,5.77830e-03
1.02800e+03,5.65247e-03
1.02900e+03,5.55146e-03
1.03000e+03,5.50996e-03
1.03100e+03,5.51216e-03
1.03200e+03,5.51637e-03
1.03300e+03,5.54413e-03
1.03400e+03,5.58376e-03
1.03500e+03,5.61690e-03
1.03600e+03,5.66955e-03
1.03700e+03,5.73530e-03
1.03800e+03,5.80072e-03
1.03900e+03,5.83781e-03
1.04000e+03,5.81739e-03
1.04100e+03,5.79389e-03
1.04200e+03,5.82063e-03
1.04300e+03,5.88899e-03
1.04400e+03,5.88899e-03
1.04500e+03,5.88534e-03
1.04600e+03,5.87725e-03
1.04700e+03,5.91354e-03
1.04800e+03,5.97025e-03
1.04900e+03,6.06162e-03
1.05000e+03,6.17922e-03
1.05100e+03,6.31204e-03
1.05200e+03,6.42486e-03
1.05300e+03,6.51202e-03
1.05400e+03,6.59438e-03
1.05500e+03,6.68239e-03
1.05600e+03,6.80194e-03
1.05700e+03,6.87298e-03
1.05800e+03,6.86832e-03
1.05900e+03,6.74742e-03
1.06000e+03,6.59792e-03
1.06100e+03,6.44895e-03
1.06200e+03,6.37242e-03
1.06300e+03,6.33513e-03
1.06400e+03,6.36356e-03
1.06500e+03,6.41561e-03
1.06600e+03,6.47673e-03
1.06700e+03,6.52201e-03
1.06800e+03,6.55643e-03
1.06900e+03,6.57289e-03
1.07000e+03,6.58950e-03
1.07100e+03,6.58986e-03
1.07200e+03,6.55409e-03
1.07300e+03,6.48619e-03
1.07400e+03,6.40533e-03
1.07500e+03,6.33914e-03
1.07600e+03,6.29658e-03
1.07700e+03,6.27247e-03
1.07800e+03,6.28448e-03
1.07900e+03,6.29797e-03
1.08000e+03,6.29244e-03
1.08100e+03,6.23511e-03
1.08200e+03,6.19925e-03
1.08300e+03,6.21353e-03
1.08400e+03,6.24970e-03
1.08500e+03,6.28001e-03
1.08600e+03,6.28346e-03
1.08700e+03,6.31308e-03
1.08800e+03,6.32959e-03
1.08900e+03,6.34912e-03
1.09000e+03,6.28290e-03
1.09100e+03,6.18079e-03
1.09200e+03,6.05877e-03
1.09300e+03,6.01718e-03
1.09400e+03,6.03681e-03
1.09500e+03,6.05308e-03
1.09600e+03,6.05190e-03
1.09700e+03,5.96030e-03
1.09800e+03,5.83272e-03
1.09900e+03,5.73097e-03
1.10000e+03,5.72674e-03
1.10100e+03,5.76764e-03
1.10200e+03,5.79410e-03
1.10300e+03,5.80405e-03
1.10400e+03,5.85126e-03
1.10500e+03,5.92073e-03
1.10600e+03,6.02759e-03
1.10700e+03,6.09631e-03
1.10800e+03,6.12878e-03
1.10900e+03,6.14918e-03
1.11000e+03,6.19020e-03
1.11100e+03,6.22517e-03
1.11200e+03,6.16675e-03
1.11300e+03,6.04882e-03
1.11400e+03,5.90904e-03
1.11500e+03,5.79847e-03
1.11600e+03,5.75381e-03
1.11700e+03,5.77288e-03
1.11800e+03,5.82269e-03
1.11900e+03,5.84368e-03
1.12000e+03,5.81475e-03
1.12100e+03,5.67936e-03
1.12200e+03,5.53080e-03
1.12300e+03,5.44012e-03
1.12400e+03,5.44575e-03
1.12500e+03,5.48872e-03
1.12600e+03,5.52376e-03
1.12700e+03,5.49144e-03
1.12800e+03,5.35722e-03
1.12900e+03,5.17149e-03
1.13000e+03,4.99020e-03
1.13100e+03,4.85654e-03
1.13200e+03,4.76908e-03
1.13300e+03,4.71011e-03
1.13400e+03,4.68191e-03
1.13500e+03,4.73947e-03
1.13600e+03,4.80172e-03
1.13700e+03,4.85665e-03
1.13800e+03,4.82975e-03
1.13900e+03,4.78625e-03
1.14000e+03,4.74248e-03
1.14100e+03,4.71969e-03
1.14200e+03,4.67400e-03
1.14300e+03,4.62546e-03
1.14400e+03,4.54459e-03
1.14500e+03,4.42467e-03
1.14600e+03,4.29040e-03
1.14700e+03,4.14373e-03
1.14800e+03,4.00530e-03
1.14900e+03,3.88081e-03
1.15000e+03,3.80002e-03
1.15100e+03,3.80108e-03
1.15200e+03,3.85619e-03
1.15300e+03,3.90425e-03
1.15400e+03,3.93833e-03
1.15500e+03,3.93511e-03
1.15600e+03,3.92918e-03
1.15700e+03,3.90079e-03
1.15800e+03,3.88446e-03
1.15900e+03,3.82239e-03
1.16000e+03,3.76547e-03
1.16100e+03,3.71088e-03
1.16200e+03,3.70852e-03
1.16300e+03,3.71681e-03
1.16400e+03,3.71681e-03
1.16500e+03,3.71080e-03
1.16600e+03,3.73624e-03
1.16700e+03,3.78436e-03
1.16800e+03,3.83250e-03
1.16900e+03,3.86147e-03
1.17000e+03,3.91374e-03
1.17100e+03,3.96059e-03
1.17200e+03,4.01722e-03
1.17300e+03,4.05039e-03
1.17400e+03,4.04743e-03
1.17500e+03,4.03656e-03
1.17600e+03,4.04298e-03
1.17700e+03,4.11056e-03
1.17800e+03,4.15980e-03
1.17900e+03,4.19163e-03
1.18000e+03,4.19613e-03
1.18100e+03,4.25166e-03
1.18200e+03,4.30323e-03
1.18300e+03,4.34087e-03
1.18400e+03,4.35758e-03
1.18500e+03,4.37114e-03
1.18600e+03,4.40706e-03
1.18700e+03,4.42828e-03
1.18800e+03,4.48222e-03
1.18900e+03,4.55100e-03
1.19000e+03,4.65047e-03
1.19100e+03,4.70530e-03
1.19200e+03,4.72939e-03
1.19300e+03,4.72937e-03
1.19400e+03,4.70869e-03
1.19500e+03,4.65239e-03
1.19600e+03,4.57851e-03
1.19700e+03,4.52683e-03
1.19800e+03,4.50299e-03
1.19900e+03,4.50186e-03
1.20000e+03,4.53137e-03
1.20100e+03,4.59634e-03
1.20200e+03,4.64585e-03
1.20300e+03,4.71088e-03
1.20400e+03,4.76134e-03
1.20500e+03,4.81486e-03
1.20600e+03,4.86254e-03
1.20700e+03,4.84624e-03
1.20800e+03,4.81279e-03
1.20900e+03,4.76298e-03
1.21000e+03,4.76063e-03
1.21100e+03,4.76642e-03
1.21200e+03,4.78873e-03
1.21300e+03,4.83177e-03
1.21400e+03,4.88318e-03
1.21500e+03,4.91661e-03
1.21600e+03,4.91211e-03
1.21700e+03,4.91227e-03
1.21800e+03,4.92381e-03
1.21900e+03,5.00716e-03
1.22000e+03,5.10537e-03
1.22100e+03,5.18552e-03
1.22200e+03,5.17680e-03
1.22300e+03,5.12786e-03
1.22400e+03,5.06704e-03
1.22500e+03,5.02121e-03
1.22600e+03,4.97475e-03
1.22700e+03,4.94561e-03
1.22800e+03,4.91941e-03
1.22900e+03,4.94176e-03
1.23000e+03,4.96700e-03
1.23100e+03,4.98896e-03
1.23200e+03,5.00087e-03
1.23300e+03,5.05122e-03
1.23400e+03,5.14200e-03
1.23500e+03,5.29047e-03
1.23600e+03,5.45084e-03
1.23700e+03,5.58195e-03
1.23800e+03,5.65812e-03
1.23900e+03,5.71821e-03
1.24000e+03,5.74263e-03
1.24100e+03,5.79811e-03
1.24200e+03,5.82242e-03
1.24300e+03,5.85413e-03
1.24400e+03,5.88521e-03
1.24500e+03,5.89979e-03
1.24600e+03,5.90153e-03
1.24700e+03,5.86959e-03
1.24800e+03,5.85141e-03
1.24900e+03,5.84051e-03
1.25000e+03,5.85143e-03
1.25100e+03,5.89333e-03
1.25200e+03,5.93968e-03
1.25300e+03,5.99123e-03
1.25400e+03,6.01044e-03
1.25500e+03,6.01462e-03
1.25600e+03,5.99172e-03
1.25700e+03,5.93172e-03
1.25800e+03,5.85046e-03
1.25900e+03,5.81161e-03
1.26000e+03,5.77846e-03
1.26100e+03,5.74783e-03
1.26200e+03,5.66944e-03
1.26300e+03,5.61667e-03
1.26400e+03,5.57082e-03
1.26500e+03,5.58904e-03
1.26600e+03,5.60800e-03
1.26700e+03,5.64345e-03
1.26800e+03,5.66036e-03
1.26900e+03,5.69174e-03
1.27000e+03,5.68765e-03
1.27100e+03,5.67454e-03
1.27200e+03,5.63982e-03
1.27300e+03,5.66885e-03
1.27400e+03,5.70706e-03
1.27500e+03,5.75178e-03
1.27600e+03,5.74079e-03
1.27700e+03,5.70862e-03
1.27800e+03,5.69904e-03
1.27900e+03,5.70156e-03
1.28000e+03,5.73013e-03
1.28100e+03,5.76532e-03
1.28200e+03,5.84633e-03
1.28300e+03,5.95011e-03
1.28400e+03,6.03727e-03
1.28500e+03,6.12098e-03
1.28600e+03,6.19915e-03
1.28700e+03,6.28989e-03
1.28800e+03,6.32834e-03
1.28900e+03,6.33078e-03
1.29000e+03,6.29231e-03
1.29100e+03,6.23229e-03
1.29200e+03,6.12153e-03
1.29300e+03,6.00794e-03
1.29400e+03,5.91896e-03
1.29500e+03,5.92177e-03
1.29600e+03,5.97905e-03
1.29700e+03,6.04127e-03
1.29800e+03,6.09937e-03
1.29900e+03,6.09645e-03
1.30000e+03,6.09645e-03
1.30100e+03,6.07781e-03
1.30200e+03,6.07285e-03
1.30300e+03,6.06775e-03
1.30400e+03,6.02863e-03
1.30500e+03,5.95055e-03
1.30600e+03,5.86372e-03
1.30700e+03,5.84689e-03
1.30800e+03,5.87888e-03
1.30900e+03,5.91631e-03
1.31000e+03,5.91366e-03
1.31100e+03,5.86565e-03
1.31200e+03,5.81566e-03
1.31300e+03,5.81594e-03
1.31400e+03,5.83207e-03
1.31500e+03,5.87425e-03
1.31600e+03,5.89980e-03
1.31700e+03,5.90828e-03
1.31800e+03,5.89270e-03
1.31900e+03,5.88466e-03
1.32000e+03,5.84570e-03
1.32100e+03,5.75285e-03
1.32200e+03,5.63693e-03
1.32300e+03,5.52608e-03
1.32400e+03,5.41650e-03
1.32500e+03,5.31164e-03
1.32600e+03,5.19694e-03
1.32700e+03,5.12502e-03
1.32800e+03,5.07600e-03
1.32900e+03,5.05173e-03
1.33000e+03,5.04749e-03
1.33100e+03,5.11885e-03
1.33200e+03,5.20398e-03
1.33300e+03,5.27696e-03
1.33400e+03,5.31601e-03
1.33500e+03,5.37060e-03
1.33600e+03,5.44512e-03
1.33700e+03,5.48638e-03
1.33800e+03,5.51304e-03
1.33900e+03,5.52901e-03
1.34000e+03,5.54464e-03
1.34100e+03,5.56520e-03
1.34200e+03,5.54187e-03
1.34300e+03,5.53781e-03
1.34400e+03,5.49309e-03
1.34500e+03,5.48254e-03
1.34600e+03,5.47836e-03
1.34700e+03,5.48380e-03
1.34800e+03,5.46978e-03
1.34900e+03,5.46726e-03
1.35000e+03,5.45865e-03
1.35100e+03,5.50411e-03
1.35200e+03,5.52667e-03
1.35300e+03,5.57945e-03
1.35400e+03,5.63327e-03
1.35500e+03,5.75184e-03
1.35600e+03,5.85797e-03
1.35700e+03,5.95940e-03
1.35800e+03,6.02298e-03
1.35900e+03,6.07360e-03
1.36000e+03,6.09975e-03
1.36100e+03,6.11166e-03
1.36200e+03,6.14803e-03
1.36300e+03,6.17363e-03
1.36400e+03,6.17392e-03
1.36500e+03,6.11751e-03
1.36600e+03,6.05446e-03
1.36700e+03,6.03226e-03
1.36800e+03,6.01649e-03
1.36900e+03,6.00447e-03
1.37000e+03,6.00877e-03
1.37100e+03,6.01225e-03
1.37200e+03,5.93060e-03
1.37300e+03,5.81274e-03
1.37400e+03,5.67765e-03
1.37500e+03,5.61180e-03
1.37600e+03,5.56196e-03
1.37700e+03,5.52798e-03
1.37800e+03,5.47091e-03
1.37900e+03,5.44434e-03
1.38000e+03,5.44617e-03
1.38100e+03,5.49688e-03
1.38200e+03,5.54620e-03
1.38300e+03,5.59090e-03
1.38400e+03,5.59090e-03
1.38500e+03,5.57951e-03
1.38600e+03,5.50957e-03
1.38700e+03,5.41560e-03
1.38800e+03,5.32946e-03
1.38900e+03,5.28233e-03
1.39000e+03,5.33154e-03
1.39100e+03,5.38764e-03
1.39200e+03,5.44823e-03
1.39300e+03,5.46760e-03
1.39400e+03,5.48265e-03
1.39500e+03,5.49187e-03
1.39600e+03,5.52074e-03
1.39700e+03,5.52893e-03
1.39800e+03,5.49992e-03
1.39900e+03,5.43185e-03
1.40000e+03,5.37398e-03
1.40100e+03,5.32555e-03
1.40200e+03,5.30762e-03
1.40300e+03,5.30971e-03
1.40400e+03,5.33149e-03
1.40500e+03,5.34763e-03
1.40600e+03,5.33772e-03
1.40700e+03,5.33441e-03
1.40800e+03,5.34710e-03
1.40900e+03,5.36184e-03
1.41000e+03,5.36231e-03
1.41100e+03,5.36206e-03
1.41200e+03,5.39433e-03
1.41300e+03,5.42660e-03
1.41400e+03,5.45378e-03
1.41500e+03,5.45815e-03
1.41600e+03,5.44023e-03
1.41700e+03,5.40099e-03
1.41800e+03,5.33860e-03
1.41900e+03,5.28878e-03
1.42000e+03,5.26700e-03
1.42100e+03,5.24342e-03
1.42200e+03,5.16902e-03
1.42300e+03,5.05820e-03
1.42400e+03,4.94838e-03
1.42500e+03,4.85479e-03
1.42600e+03,4.75333e-03
1.42700e+03,4.65035e-03
1.42800e+03,4.56135e-03
1.42900e+03,4.48746e-03
1.43000e+03,4.42188e-03
1.43100e+03,4.37409e-03
1.43200e+03,4.35011e-03
1.43300e+03,4.35673e-03
1.43400e+03,4.34318e-03
1.43500e+03,4.35168e-03
1.43600e+03,4.36336e-03
1.43700e+03,4.39563e-03
1.43800e+03,4.42246e-03
1.43900e+03,4.45435e-03