Pixels #,Intensity (a.u.)
0.00000e+00,8.75250e-03
1.00000e+00,8.73742e-03
2.00000e+00,8.73239e-03
3.00000e+00,8.69307e-03
4.00000e+00,8.65181e-03
5.00000e+00,8.60038e-03
6.00000e+00,8.53709e-03
7.00000e+00,8.46941e-03
8.00000e+00,8.40291e-03
9.00000e+00,8.34133e-03
1.00000e+01,8.23096e-03
1.10000e+01,8.12060e-03
1.20000e+01,8.02908e-03
1.30000e+01,7.99084e-03
1.40000e+01,8.00727e-03
1.50000e+01,8.01669e-03
1.60000e+01,7.98776e-03
1.70000e+01,7.91082e-03
1.80000e+01,7.80045e-03
1.90000e+01,7.69009e-03
2.00000e+01,7.59227e-03
2.10000e+01,7.50158e-03
2.20000e+01,7.44356e-03
2.30000e+01,7.38750e-03
2.40000e+01,7.34614e-03
2.50000e+01,7.26934e-03
2.60000e+01,7.17613e-03
2.70000e+01,7.07374e-03
2.80000e+01,6.96514e-03
2.90000e+01,6.85478e-03
3.00000e+01,6.74631e-03
3.10000e+01,6.67191e-03
3.20000e+01,6.66404e-03
3.30000e+01,6.65301e-03
3.40000e+01,6.61683e-03
3.50000e+01,6.54446e-03
3.60000e+01,6.48197e-03
3.70000e+01,6.45628e-03
3.80000e+01,6.43667e-03
3.90000e+01,6.41683e-03
4.00000e+01,6.37862e-03
4.10000e+01,6.36906e-03
4.20000e+01,6.36597e-03
4.30000e+01,6.34088e-03
4.40000e+01,6.24648e-03
4.50000e+01,6.13612e-03
4.60000e+01,6.02575e-03
4.70000e+01,5.97174e-03
4.80000e+01,5.96994e-03
4.90000e+01,5.96995e-03
5.00000e+01,5.87091e-03
5.10000e+01,5.71902e-03
5.20000e+01,5.54399e-03
5.30000e+01,5.44071e-03
5.40000e+01,5.36526e-03
5.50000e+01,5.27546e-03
5.60000e+01,5.15508e-03
5.70000e+01,5.07653e-03
5.80000e+01,5.07343e-03
5.90000e+01,5.08628e-03
6.00000e+01,5.12864e-03
6.10000e+01,5.19702e-03
6.20000e+01,5.26673e-03
6.30000e+01,5.26228e-03
6.40000e+01,5.20300e-03
6.50000e+01,5.15847e-03
6.60000e+01,5.16310e-03
6.70000e+01,5.16310e-03
6.80000e+01,5.16310e-03
6.90000e+01,5.14722e-03
7.00000e+01,5.16584e-03
7.10000e+01,5.20760e-03
7.20000e+01,5.27617e-03
7.30000e+01,5.31035e-03
7.40000e+01,5.30742e-03
7.50000e+01,5.28128e-03
7.60000e+01,5.25734e-03
7.70000e+01,5.23599e-03
7.80000e+01,5.22056e-03
7.90000e+01,5.20894e-03
8.00000e+01,5.17442e-03
8.10000e+01,5.06431e-03
8.20000e+01,4.89835e-03
8.30000e+01,4.72155e-03
8.40000e+01,4.66817e-03
8.50000e+01,4.68930e-03
8.60000e+01,4.73474e-03
8.70000e+01,4.76309e-03
8.80000e+01,4.82426e-03
8.90000e+01,4.97607e-03
9.00000e+01,5.13101e-03
9.10000e+01,5.21266e-03
9.20000e+01,5.17838e-03
9.30000e+01,5.08065e-03
9.40000e+01,5.00961e-03
9.50000e+01,4.94348e-03
9.60000e+01,4.89118e-03
9.70000e+01,4.88478e-03
9.80000e+01,4.92273e-03
9.90000e+01,5.00517e-03
1.00000e+02,5.08929e-03
1.01000e+02,5.21862e-03
1.02000e+02,5.32937e-03
1.03000e+02,5.40122e-03
1.04000e+02,5.41849e-03
1.05000e+02,5.37301e-03
1.06000e+02,5.34936e-03
1.07000e+02,5.36366e-03
1.08000e+02,5.41202e-03
1.09000e+02,5.45821e-03
1.10000e+02,5.45821e-03
1.11000e+02,5.44566e-03
1.12000e+02,5.45016e-03
1.13000e+02,5.46315e-03
1.14000e+02,5.50735e-03
1.15000e+02,5.47133e-03
1.16000e+02,5.44349e-03
1.17000e+02,5.43957e-03
1.18000e+02,5.47058e-03
1.19000e+02,5.51613e-03
1.20000e+02,5.55359e-03
1.21000e+02,5.61319e-03
1.22000e+02,5.64397e-03
1.23000e+02,5.61643e-03
1.24000e+02,5.58424e-03
1.25000e+02,5.55354e-03
1.26000e+02,5.56557e-03
1.27000e+02,5.59041e-03
1.28000e+02,5.63435e-03
1.29000e+02,5.68721e-03
1.30000e+02,5.71010e-03
1.31000e+02,5.71994e-03
1.32000e+02,5.65015e-03
1.33000e+02,5.58077e-03
1.34000e+02,5.52334e-03
1.35000e+02,5.55522e-03
1.36000e+02,5.59194e-03
1.37000e+02,5.63133e-03
1.38000e+02,5.63268e-03
1.39000e+02,5.59095e-03
1.40000e+02,5.56746e-03
1.41000e+02,5.61203e-03
1.42000e+02,5.71320e-03
1.43000e+02,5.83146e-03
1.44000e+02,5.93542e-03
1.45000e+02,6.03022e-03
1.46000e+02,6.11346e-03
1.47000e+02,6.20490e-03
1.48000e+02,6.26712e-03
1.49000e+02,6.28017e-03
1.50000e+02,6.24043e-03
1.51000e+02,6.12822e-03
1.52000e+02,6.00215e-03
1.53000e+02,5.88774e-03
1.54000e+02,5.83906e-03
1.55000e+02,5.87892e-03
1.56000e+02,5.97625e-03
1.57000e+02,6.11430e-03
1.58000e+02,6.24696e-03
1.59000e+02,6.37755e-03
1.60000e+02,6.53746e-03
1.61000e+02,6.68366e-03
1.62000e+02,6.78916e-03
1.63000e+02,6.82836e-03
1.64000e+02,6.85604e-03
1.65000e+02,6.87948e-03
1.66000e+02,6.91650e-03
1.67000e+02,6.93291e-03
1.68000e+02,6.96860e-03
1.69000e+02,7.00003e-03
1.70000e+02,7.03910e-03
1.71000e+02,7.06442e-03
1.72000e+02,7.12302e-03
1.73000e+02,7.20486e-03
1.74000e+02,7.29234e-03
1.75000e+02,7.30588e-03
1.76000e+02,7.28013e-03
1.77000e+02,7.23601e-03
1.78000e+02,7.18013e-03
1.79000e+02,7.07666e-03
1.80000e+02,6.92275e-03
1.81000e+02,6.76990e-03
1.82000e+02,6.69270e-03
1.83000e+02,6.69892e-03
1.84000e+02,6.77226e-03
1.85000e+02,6.85605e-03
1.86000e+02,6.94007e-03
1.87000e+02,6.99532e-03
1.88000e+02,6.99641e-03
1.89000e+02,6.96925e-03
1.90000e+02,6.92367e-03
1.91000e+02,6.87431e-03
1.92000e+02,6.81477e-03
1.93000e+02,6.77617e-03
1.94000e+02,6.78930e-03
1.95000e+02,6.81598e-03
1.96000e+02,6.82385e-03
1.97000e+02,6.75824e-03
1.98000e+02,6.66251e-03
1.99000e+02,6.58072e-03
2.00000e+02,6.53830e-03
2.01000e+02,6.56563e-03
2.02000e+02,6.61703e-03
2.03000e+02,6.65424e-03
2.04000e+02,6.61132e-03
2.05000e+02,6.52596e-03
2.06000e+02,6.49723e-03
2.07000e+02,6.53853e-03
2.08000e+02,6.58388e-03
2.09000e+02,6.66528e-03
2.10000e+02,6.71658e-03
2.11000e+02,6.76289e-03
2.12000e+02,6.72967e-03
2.13000e+02,6.73519e-03
2.14000e+02,6.71885e-03
2.15000e+02,6.70854e-03
2.16000e+02,6.68176e-03
2.17000e+02,6.67610e-03
2.18000e+02,6.66047e-03
2.19000e+02,6.62000e-03
2.20000e+02,6.57444e-03
2.21000e+02,6.55940e-03
2.22000e+02,6.55072e-03
2.23000e+02,6.53961e-03
2.24000e+02,6.50614e-03
2.25000e+02,6.48434e-03
2.26000e+02,6.47540e-03
2.27000e+02,6.49159e-03
2.28000e+02,6.50950e-03
2.29000e+02,6.56060e-03
2.30000e+02,6.61875e-03
2.31000e+02,6.67229e-03
2.32000e+02,6.66644e-03
2.33000e+02,6.60551e-03
2.34000e+02,6.51377e-03
2.35000e+02,6.38593e-03
2.36000e+02,6.25193e-03
2.37000e+02,6.14783e-03
2.38000e+02,6.05515e-03
2.39000e+02,5.98587e-03
2.40000e+02,5.91196e-03
2.41000e+02,5.88329e-03
2.42000e+02,5.88980e-03
2.43000e+02,5.92318e-03
2.44000e+02,5.93474e-03
2.45000e+02,5.94276e-03
2.46000e+02,5.88357e-03
2.47000e+02,5.79040e-03
2.48000e+02,5.68692e-03
2.49000e+02,5.63148e-03
2.50000e+02,5.58640e-03
2.51000e+02,5.47587e-03
2.52000e+02,5.30382e-03
2.53000e+02,5.12957e-03
2.54000e+02,4.99385e-03
2.55000e+02,4.89118e-03
2.56000e+02,4.82319e-03
2.57000e+02,4.78176e-03
2.58000e+02,4.77972e-03
2.59000e+02,4.80377e-03
2.60000e+02,4.85627e-03
2.61000e+02,4.91827e-03
2.62000e+02,4.95240e-03
2.63000e+02,4.95707e-03
2.64000e+02,4.93470e-03
2.65000e+02,4.94410e-03
2.66000e+02,4.96824e-03
2.67000e+02,4.97381e-03
2.68000e+02,4.95756e-03
2.69000e+02,4.92706e-03
2.70000e+02,4.92206e-03
2.71000e+02,4.88972e-03
2.72000e+02,4.86632e-03
2.73000e+02,4.84290e-03
2.74000e+02,4.86604e-03
2.75000e+02,4.88956e-03
2.76000e+02,4.89788e-03
2.77000e+02,4.88896e-03
2.78000e+02,4.93733e-03
2.79000e+02,5.04933e-03
2.80000e+02,5.19648e-03
2.81000e+02,5.27529e-03
2.82000e+02,5.31012e-03
2.83000e+02,5.32523e-03
2.84000e+02,5.38987e-03
2.85000e+02,5.44471e-03
2.86000e+02,5.50455e-03
2.87000e+02,5.57099e-03
2.88000e+02,5.67247e-03
2.89000e+02,5.77029e-03
2.90000e+02,5.82275e-03
2.91000e+02,5.85531e-03
2.92000e+02,5.90123e-03
2.93000e+02,5.96928e-03
2.94000e+02,6.06104e-03
2.95000e+02,6.16874e-03
2.96000e+02,6.26969e-03
2.97000e+02,6.34685e-03
2.98000e+02,6.34789e-03
2.99000e+02,6.29604e-03
3.00000e+02,6.17565e-03
3.01000e+02,6.07703e-03
3.02000e+02,5.99385e-03
3.03000e+02,5.98902e-03
3.04000e+02,5.97267e-03
3.05000e+02,5.97870e-03
3.06000e+02,5.97771e-03
3.07000e+02,6.02366e-03
3.08000e+02,6.03109e-03
3.09000e+02,6.02541e-03
3.10000e+02,5.94688e-03
3.11000e+02,5.84883e-03
3.12000e+02,5.75045e-03
3.13000e+02,5.67713e-03
3.14000e+02,5.67227e-03
3.15000e+02,5.71986e-03
3.16000e+02,5.76155e-03
3.17000e+02,5.76707e-03
3.18000e+02,5.71417e-03
3.19000e+02,5.66654e-03
3.20000e+02,5.59066e-03
3.21000e+02,5.53742e-03
3.22000e+02,5.53882e-03
3.23000e+02,5.68384e-03
3.24000e+02,5.86788e-03
3.25000e+02,6.02004e-03
3.26000e+02,6.10859e-03
3.27000e+02,6.16651e-03
3.28000e+02,6.22849e-03
3.29000e+02,6.30796e-03
3.30000e+02,6.35804e-03
3.31000e+02,6.35804e-03
3.32000e+02,6.35246e-03
3.33000e+02,6.37383e-03
3.34000e+02,6.40362e-03
3.35000e+02,6.46414e-03
3.36000e+02,6.53178e-03
3.37000e+02,6.66211e-03
3.38000e+02,6.83494e-03
3.39000e+02,7.03109e-03
3.40000e+02,7.21547e-03
3.41000e+02,7.37293e-03
3.42000e+02,7.50339e-03
3.43000e+02,7.60237e-03
3.44000e+02,7.68242e-03
3.45000e+02,7.75769e-03
3.46000e+02,7.82851e-03
3.47000e+02,7.86136e-03
3.48000e+02,7.82563e-03
3.49000e+02,7.75419e-03
3.50000e+02,7.62785e-03
3.51000e+02,7.48881e-03
3.52000e+02,7.38059e-03
3.53000e+02,7.36171e-03
3.54000e+02,7.37904e-03
3.55000e+02,7.37839e-03
3.56000e+02,7.29092e-03
3.57000e+02,7.16980e-03
3.58000e+02,7.09723e-03
3.59000e+02,7.10764e-03
3.60000e+02,7.16760e-03
3.61000e+02,7.17630e-03
3.62000e+02,7.16715e-03
3.63000e+02,7.15053e-03
3.64000e+02,7.17564e-03
3.65000e+02,7.21901e-03
3.66000e+02,7.25098e-03
3.67000e+02,7.27281e-03
3.68000e+02,7.29364e-03
3.69000e+02,7.27548e-03
3.70000e+02,7.19669e-03
3.71000e+02,7.04807e-03
3.72000e+02,6.89936e-03
3.73000e+02,6.78099e-03
3.74000e+02,6.70687e-03
3.75000e+02,6.65930e-03
3.76000e+02,6.66139e-03
3.77000e+02,6.65464e-03
3.78000e+02,6.63196e-03
3.79000e+02,6.55469e-03
3.80000e+02,6.45687e-03
3.81000e+02,6.40441e-03
3.82000e+02,6.36809e-03
3.83000e+02,6.31192e-03
3.84000e+02,6.23256e-03
3.85000e+02,6.19703e-03
3.86000e+02,6.19353e-03
3.87000e+02,6.25230e-03
3.88000e+02,6.30983e-03
3.89000e+02,6.39739e-03
3.90000e+02,6.46451e-03
3.91000e+02,6.52561e-03
3.92000e+02,6.55223e-03
3.93000e+02,6.57070e-03
3.94000e+02,6.56613e-03
3.95000e+02,6.52372e-03
3.96000e+02,6.49620e-03
3.97000e+02,6.47765e-03
3.98000e+02,6.51289e-03
3.99000e+02,6.56992e-03
4.00000e+02,6.65891e-03
4.01000e+02,6.74660e-03
4.02000e+02,6.85103e-03
4.03000e+02,6.93835e-03
4.04000e+02,7.04955e-03
4.05000e+02,7.10863e-03
4.06000e+02,7.15203e-03
4.07000e+02,7.20739e-03
4.08000e+02,7.26828e-03
4.09000e+02,7.31862e-03
4.10000e+02,7.30895e-03
4.11000e+02,7.30895e-03
4.12000e+02,7.29912e-03
4.13000e+02,7.28147e-03
4.14000e+02,7.19107e-03
4.15000e+02,7.09462e-03
4.16000e+02,7.03046e-03
4.17000e+02,7.03059e-03
4.18000e+02,7.05841e-03
4.19000e+02,7.09496e-03
4.20000e+02,7.13147e-03
4.21000e+02,7.17630e-03
4.22000e+02,7.23780e-03
4.23000e+02,7.27295e-03
4.24000e+02,7.28266e-03
4.25000e+02,7.22618e-03
4.26000e+02,7.15149e-03
4.27000e+02,7.06272e-03
4.28000e+02,6.99701e-03
4.29000e+02,6.95304e-03
4.30000e+02,6.90361e-03
4.31000e+02,6.82364e-03
4.32000e+02,6.71525e-03
4.33000e+02,6.62082e-03
4.34000e+02,6.59814e-03
4.35000e+02,6.58216e-03
4.36000e+02,6.51003e-03
4.37000e+02,6.43227e-03
4.38000e+02,6.39142e-03
4.39000e+02,6.42180e-03
4.40000e+02,6.48049e-03
4.41000e+02,6.58503e-03
4.42000e+02,6.67100e-03
4.43000e+02,6.73225e-03
4.44000e+02,6.71288e-03
4.45000e+02,6.65858e-03
4.46000e+02,6.60941e-03
4.47000e+02,6.64987e-03
4.48000e+02,6.78845e-03
4.49000e+02,6.95138e-03
4.50000e+02,7.06149e-03
4.51000e+02,7.09233e-03
4.52000e+02,7.10806e-03
4.53000e+02,7.09463e-03
4.54000e+02,7.07815e-03
4.55000e+02,7.02872e-03
4.56000e+02,6.99458e-03
4.57000e+02,6.96558e-03
4.58000e+02,6.96420e-03
4.59000e+02,6.97494e-03
4.60000e+02,7.01384e-03
4.61000e+02,7.04177e-03
4.62000e+02,7.05002e-03
4.63000e+02,7.06303e-03
4.64000e+02,7.10339e-03
4.65000e+02,7.17658e-03
4.66000e+02,7.21662e-03
4.67000e+02,7.23059e-03
4.68000e+02,7.23058e-03
4.69000e+02,7.23718e-03
4.70000e+02,7.21900e-03
4.71000e+02,7.21900e-03
4.72000e+02,7.21900e-03
4.73000e+02,7.25562e-03
4.74000e+02,7.32987e-03
4.75000e+02,7.46803e-03
4.76000e+02,7.51605e-03
4.77000e+02,7.54783e-03
4.78000e+02,7.47297e-03
4.79000e+02,7.37692e-03
4.80000e+02,7.24655e-03
4.81000e+02,7.19700e-03
4.82000e+02,7.19460e-03
4.83000e+02,7.25495e-03
4.84000e+02,7.32991e-03
4.85000e+02,7.44169e-03
4.86000e+02,7.56298e-03
4.87000e+02,7.65932e-03
4.88000e+02,7.70647e-03
4.89000e+02,7.62033e-03
4.90000e+02,7.51151e-03
4.91000e+02,7.37111e-03
4.92000e+02,7.30451e-03
4.93000e+02,7.21302e-03
4.94000e+02,7.16879e-03
4.95000e+02,7.09627e-03
4.96000e+02,7.08595e-03
4.97000e+02,7.04259e-03
4.98000e+02,7.01458e-03
4.99000e+02,7.04763e-03
5.00000e+02,7.15161e-03
5.01000e+02,7.25843e-03
5.02000e+02,7.31195e-03
5.03000e+02,7.34126e-03
5.04000e+02,7.32607e-03
5.05000e+02,7.23679e-03
5.06000e+02,7.13878e-03
5.07000e+02,7.10413e-03
5.08000e+02,7.17391e-03
5.09000e+02,7.33703e-03
5.10000e+02,7.49895e-03
5.11000e+02,7.62379e-03
5.12000e+02,7.69572e-03
5.13000e+02,7.77980e-03
5.14000e+02,7.85741e-03
5.15000e+02,7.91465e-03
5.16000e+02,7.98183e-03
5.17000e+02,8.01512e-03
5.18000e+02,8.03291e-03
5.19000e+02,7.98047e-03
5.20000e+02,7.90170e-03
5.21000e+02,7.78914e-03
5.22000e+02,7.66802e-03
5.23000e+02,7.55478e-03
5.24000e+02,7.46521e-03
5.25000e+02,7.36653e-03
5.26000e+02,7.29190e-03
5.27000e+02,7.28877e-03
5.28000e+02,7.32066e-03
5.29000e+02,7.32378e-03
5.30000e+02,7.29822e-03
5.31000e+02,7.27699e-03
5.32000e+02,7.27253e-03
5.33000e+02,7.28561e-03
5.34000e+02,7.31877e-03
5.35000e+02,7.40718e-03
5.36000e+02,7.60514e-03
5.37000e+02,7.85555e-03
5.38000e+02,8.09515e-03
5.39000e+02,8.20651e-03
5.40000e+02,8.23878e-03
5.41000e+02,8.21271e-03
5.42000e+02,8.20618e-03
5.43000e+02,8.22842e-03
5.44000e+02,8.31976e-03
5.45000e+02,8.45582e-03
5.46000e+02,8.58279e-03
5.47000e+02,8.67617e-03
5.48000e+02,8.70395e-03
5.49000e+02,8.66060e-03
5.50000e+02,8.55094e-03
5.51000e+02,8.41995e-03
5.52000e+02,8.31704e-03
5.53000e+02,8.25680e-03
5.54000e+02,8.29379e-03
5.55000e+02,8.38609e-03
5.56000e+02,8.55055e-03
5.57000e+02,8.62377e-03
5.58000e+02,8.61539e-03
5.59000e+02,8.56924e-03
5.60000e+02,8.54722e-03
5.61000e+02,8.63443e-03
5.62000e+02,8.81340e-03
5.63000e+02,9.03877e-03
5.64000e+02,9.23563e-03
5.65000e+02,9.29816e-03
5.66000e+02,9.24732e-03
5.67000e+02,9.20906e-03
5.68000e+02,9.15601e-03
5.69000e+02,9.12900e-03
5.70000e+02,9.08610e-03
5.71000e+02,9.09038e-03
5.72000e+02,9.06609e-03
5.73000e+02,9.03013e-03
5.74000e+02,8.94955e-03
5.75000e+02,8.87643e-03
5.76000e+02,8.82207e-03
5.77000e+02,8.82796e-03
5.78000e+02,8.91099e-03
5.79000e+02,8.99939e-03
5.80000e+02,9.10461e-03
5.81000e+02,9.18204e-03
5.82000e+02,9.26452e-03
5.83000e+02,9.30736e-03
5.84000e+02,9.30845e-03
5.85000e+02,9.26536e-03
5.86000e+02,9.22668e-03
5.87000e+02,9.22100e-03
5.88000e+02,9.27104e-03
5.89000e+02,9.34122e-03
5.90000e+02,9.36389e-03
5.91000e+02,9.36729e-03
5.92000e+02,9.41111e-03
5.93000e+02,9.49710e-03
5.94000e+02,9.58757e-03
5.95000e+02,9.64472e-03
5.96000e+02,9.71237e-03
5.97000e+02,9.80419e-03
5.98000e+02,9.88447e-03
5.99000e+02,9.88383e-03
6.00000e+02,9.78047e-03
6.01000e+02,9.63830e-03
6.02000e+02,9.53039e-03
6.03000e+02,9.44677e-03
6.04000e+02,9.35698e-03
6.05000e+02,9.24422e-03
6.06000e+02,9.16263e-03
6.07000e+02,9.08876e-03
6.08000e+02,9.05997e-03
6.09000e+02,9.03415e-03
6.10000e+02,8.99902e-03
6.11000e+02,8.91838e-03
6.12000e+02,8.85868e-03
6.13000e+02,8.86541e-03
6.14000e+02,8.89143e-03
6.15000e+02,8.92479e-03
6.16000e+02,8.92626e-03
6.17000e+02,8.95131e-03
6.18000e+02,8.99402e-03
6.19000e+02,9.06681e-03
6.20000e+02,9.14888e-03
6.21000e+02,9.21738e-03
6.22000e+02,9.24641e-03
6.23000e+02,9.23461e-03
6.24000e+02,9.18922e-03
6.25000e+02,9.07594e-03
6.26000e+02,8.93806e-03
6.27000e+02,8.71462e-03
6.28000e+02,8.48063e-03
6.29000e+02,8.22129e-03
6.30000e+02,8.03202e-03
6.31000e+02,7.85272e-03
6.32000e+02,7.75404e-03
6.33000e+02,7.77225e-03
6.34000e+02,7.97312e-03
6.35000e+02,8.17981e-03
6.36000e+02,8.24582e-03
6.37000e+02,8.15926e-03
6.38000e+02,8.02491e-03
6.39000e+02,8.04161e-03
6.40000e+02,8.16284e-03
6.41000e+02,8.37709e-03
6.42000e+02,8.52767e-03
6.43000e+02,8.65044e-03
6.44000e+02,8.72003e-03
6.45000e+02,8.71258e-03
6.46000e+02,8.64420e-03
6.47000e+02,8.47659e-03
6.48000e+02,8.34786e-03
6.49000e+02,8.20140e-03
6.50000e+02,8.07837e-03
6.51000e+02,7.96086e-03
6.52000e+02,7.84030e-03
6.53000e+02,7.69955e-03
6.54000e+02,7.56235e-03
6.55000e+02,7.45814e-03
6.56000e+02,7.47126e-03
6.57000e+02,7.49193e-03
6.58000e+02,7.48890e-03
6.59000e+02,7.51724e-03
6.60000e+02,7.54461e-03
6.61000e+02,7.65411e-03
6.62000e+02,7.73847e-03
6.63000e+02,7.89020e-03
6.64000e+02,8.02140e-03
6.65000e+02,8.14998e-03
6.66000e+02,8.21573e-03
6.67000e+02,8.25278e-03
6.68000e+02,8.25015e-03
6.69000e+02,8.20290e-03
6.70000e+02,8.18630e-03
6.71000e+02,8.20873e-03
6.72000e+02,8.23227e-03
6.73000e+02,8.21836e-03
6.74000e+02,8.18943e-03
6.75000e+02,8.20460e-03
6.76000e+02,8.20460e-03
6.77000e+02,8.20460e-03
6.78000e+02,8.14647e-03
6.79000e+02,8.04437e-03
6.80000e+02,7.91952e-03
6.81000e+02,7.77749e-03
6.82000e+02,7.67719e-03
6.83000e+02,7.58345e-03
6.84000e+02,7.54670e-03
6.85000e+02,7.55841e-03
6.86000e+02,7.60344e-03
6.87000e+02,7.59744e-03
6.88000e+02,7.45831e-03
6.89000e+02,7.26937e-03
6.90000e+02,7.09122e-03
6.91000e+02,6.95173e-03
6.92000e+02,6.84941e-03
6.93000e+02,6.72429e-03
6.94000e+02,6.71623e-03
6.95000e+02,6.80571e-03
6.96000e+02,6.97227e-03
6.97000e+02,7.11507e-03
6.98000e+02,7.24214e-03
6.99000e+02,7.35324e-03
7.00000e+02,7.41450e-03
7.01000e+02,7.43208e-03
7.02000e+02,7.42216e-03
7.03000e+02,7.39884e-03
7.04000e+02,7.33158e-03
7.05000e+02,7.28637e-03
7.06000e+02,7.25232e-03
7.07000e+02,7.29327e-03
7.08000e+02,7.35315e-03
7.09000e+02,7.39760e-03
7.10000e+02,7.36037e-03
7.11000e+02,7.29166e-03
7.12000e+02,7.21042e-03
7.13000e+02,7.14393e-03
7.14000e+02,7.05565e-03
7.15000e+02,7.00051e-03
7.16000e+02,7.00175e-03
7.17000e+02,7.07131e-03
7.18000e+02,7.26489e-03
7.19000e+02,7.45711e-03
7.20000e+02,7.64054e-03
7.21000e+02,7.70802e-03
7.22000e+02,7.73413e-03
7.23000e+02,7.70416e-03
7.24000e+02,7.56152e-03
7.25000e+02,7.27911e-03
7.26000e+02,6.98109e-03
7.27000e+02,6.80363e-03
7.28000e+02,6.72497e-03
7.29000e+02,6.66634e-03
7.30000e+02,6.52434e-03
7.31000e+02,6.39412e-03
7.32000e+02,6.22557e-03
7.33000e+02,6.10725e-03
7.34000e+02,6.03676e-03
7.35000e+02,6.09227e-03
7.36000e+02,6.16606e-03
7.37000e+02,6.16413e-03
7.38000e+02,6.08332e-03
7.39000e+02,6.02501e-03
7.40000e+02,6.04212e-03
7.41000e+02,6.09279e-03
7.42000e+02,6.09279e-03
7.43000e+02,6.08957e-03
7.44000e+02,6.05134e-03
7.45000e+02,6.00281e-03
7.46000e+02,5.91673e-03
7.47000e+02,5.79437e-03
7.48000e+02,5.68208e-03
7.49000e+02,5.57909e-03
7.50000e+02,5.47369e-03
7.51000e+02,5.40679e-03
7.52000e+02,5.35672e-03
7.53000e+02,5.32234e-03
7.54000e+02,5.20758e-03
7.55000e+02,5.09174e-03
7.56000e+02,5.02935e-03
7.57000e+02,5.06700e-03
7.58000e+02,5.08752e-03
7.59000e+02,5.01685e-03
7.60000e+02,4.85636e-03
7.61000e+02,4.70010e-03
7.62000e+02,4.56068e-03
7.63000e+02,4.45971e-03
7.64000e+02,4.39185e-03
7.65000e+02,4.35433e-03
7.66000e+02,4.37792e-03
7.67000e+02,4.47707e-03
7.68000e+02,4.59019e-03
7.69000e+02,4.71318e-03
7.70000e+02,4.84316e-03
7.71000e+02,4.94815e-03
7.72000e+02,5.04275e-03
7.73000e+02,5.06815e-03
7.74000e+02,5.07844e-03
7.75000e+02,4.98917e-03
7.76000e+02,4.85197e-03
7.77000e+02,4.71000e-03
7.78000e+02,4.64562e-03
7.79000e+02,4.73530e-03
7.80000e+02,4.86659e-03
7.81000e+02,5.01107e-03
7.82000e+02,5.12277e-03
7.83000e+02,5.19288e-03
7.84000e+02,5.20841e-03
7.85000e+02,5.13324e-03
7.86000e+02,4.98797e-03
7.87000e+02,4.88189e-03
7.88000e+02,4.82236e-03
7.89000e+02,4.82451e-03
7.90000e+02,4.81374e-03
7.91000e+02,4.83766e-03
7.92000e+02,4.82632e-03
7.93000e+02,4.82632e-03
7.94000e+02,4.82632e-03
7.95000e+02,4.87168e-03
7.96000e+02,4.91904e-03
7.97000e+02,4.92832e-03
7.98000e+02,4.88590e-03
7.99000e+02,4.81434e-03
8.00000e+02,4.76689e-03
8.01000e+02,4.74746e-03
8.02000e+02,4.78417e-03
8.03000e+02,4.81113e-03
8.04000e+02,4.81113e-03
8.05000e+02,4.81877e-03
8.06000e+02,4.90737e-03
8.07000e+02,5.02397e-03
8.08000e+02,5.08252e-03
8.09000e+02,4.95071e-03
8.10000e+02,4.79334e-03
8.11000e+02,4.60583e-03
8.12000e+02,4.51142e-03
8.13000e+02,4.43662e-03
8.14000e+02,4.39426e-03
8.15000e+02,4.39426e-03
8.16000e+02,4.39426e-03
8.17000e+02,4.39789e-03
8.18000e+02,4.42838e-03
8.19000e+02,4.47975e-03
8.20000e+02,4.53168e-03
8.21000e+02,4.57392e-03
8.22000e+02,4.60902e-03
8.23000e+02,4.66521e-03
8.24000e+02,4.73334e-03
8.25000e+02,4.78801e-03
8.26000e+02,4.76981e-03
8.27000e+02,4.70955e-03
8.28000e+02,4.65384e-03
8.29000e+02,4.65441e-03
8.30000e+02,4.64727e-03
8.31000e+02,4.67569e-03
8.32000e+02,4.73141e-03
8.33000e+02,4.86511e-03
8.34000e+02,4.95606e-03
8.35000e+02,5.00407e-03
8.36000e+02,4.97036e-03
8.37000e+02,4.92716e-03
8.38000e+02,4.88254e-03
8.39000e+02,4.86138e-03
8.40000e+02,4.90142e-03
8.41000e+02,4.97655e-03
8.42000e+02,5.04339e-03
8.43000e+02,5.06825e-03
8.44000e+02,5.09209e-03
8.45000e+02,5.17344e-03
8.46000e+02,5.26621e-03
8.47000e+02,5.29306e-03
8.48000e+02,5.19975e-03
8.49000e+02,5.06587e-03
8.50000e+02,4.99848e-03
8.51000e+02,4.99498e-03
8.52000e+02,4.99498e-03
8.53000e+02,4.99498e-03
8.54000e+02,4.99498e-03
8.55000e+02,5.03248e-03
8.56000e+02,5.04735e-03
8.57000e+02,5.02420e-03
8.58000e+02,4.93281e-03
8.59000e+02,4.84673e-03
8.60000e+02,4.73162e-03
8.61000e+02,4.61575e-03
8.62000e+02,4.55306e-03
8.63000e+02,4.60050e-03
8.64000e+02,4.74467e-03
8.65000e+02,4.92555e-03
8.66000e+02,5.14667e-03
8.67000e+02,5.36729e-03
8.68000e+02,5.50795e-03
8.69000e+02,5.57366e-03
8.70000e+02,5.51595e-03
8.71000e+02,5.43799e-03
8.72000e+02,5.36687e-03
8.73000e+02,5.35518e-03
8.74000e+02,5.39333e-03
8.75000e+02,5.46567e-03
8.76000e+02,5.53047e-03
8.77000e+02,5.60107e-03
8.78000e+02,5.66930e-03
8.79000e+02,5.76263e-03
8.80000e+02,5.81244e-03
8.81000e+02,5.86458e-03
8.82000e+02,5.88753e-03
8.83000e+02,5.97888e-03
8.84000e+02,6.02273e-03
8.85000e+02,6.04896e-03
8.86000e+02,6.01807e-03
8.87000e+02,6.01071e-03
8.88000e+02,6.03819e-03
8.89000e+02,6.13040e-03
8.90000e+02,6.19848e-03
8.91000e+02,6.25449e-03
8.92000e+02,6.27429e-03
8.93000e+02,6.30294e-03
8.94000e+02,6.36647e-03
8.95000e+02,6.45771e-03
8.96000e+02,6.53896e-03
8.97000e+02,6.49717e-03
8.98000e+02,6.36758e-03
8.99000e+02,6.23508e-03
9.00000e+02,6.17444e-03
9.01000e+02,6.13408e-03
9.02000e+02,6.13880e-03
9.03000e+02,6.16065e-03
9.04000e+02,6.23077e-03
9.05000e+02,6.32694e-03
9.06000e+02,6.41772e-03
9.07000e+02,6.53953e-03
9.08000e+02,6.62489e-03
9.09000e+02,6.64818e-03
9.10000e+02,6.63188e-03
9.11000e+02,6.60284e-03
9.12000e+02,6.55068e-03
9.13000e+02,6.46756e-03
9.14000e+02,6.43228e-03
9.15000e+02,6.46923e-03
9.16000e+02,6.52541e-03
9.17000e+02,6.56960e-03
9.18000e+02,6.60504e-03
9.19000e+02,6.65830e-03
9.20000e+02,6.70784e-03
9.21000e+02,6.76224e-03
9.22000e+02,6.76733e-03
9.23000e+02,6.69386e-03
9.24000e+02,6.56016e-03
9.25000e+02,6.46921e-03
9.26000e+02,6.42120e-03
9.27000e+02,6.43722e-03
9.28000e+02,6.45156e-03
9.29000e+02,6.49629e-03
9.30000e+02,6.50688e-03
9.31000e+02,6.48443e-03
9.32000e+02,6.38563e-03
9.33000e+02,6.32852e-03
9.34000e+02,6.31609e-03
9.35000e+02,6.35468e-03
9.36000e+02,6.35365e-03
9.37000e+02,6.35272e-03
9.38000e+02,6.41583e-03
9.39000e+02,6.58739e-03
9.40000e+02,6.78129e-03
9.41000e+02,6.93829e-03
9.42000e+02,7.00532e-03
9.43000e+02,7.01415e-03
9.44000e+02,7.01415e-03
9.45000e+02,7.03368e-03
9.46000e+02,7.01800e-03
9.47000e+02,7.04217e-03
9.48000e+02,7.03399e-03
9.49000e+02,7.08572e-03
9.50000e+02,7.13843e-03
9.51000e+02,7.19967e-03
9.52000e+02,7.19671e-03
9.53000e+02,7.13399e-03
9.54000e+02,6.97294e-03
9.55000e+02,6.75482e-03
9.56000e+02,6.51997e-03
9.57000e+02,6.31651e-03
9.58000e+02,6.14524e-03
9.59000e+02,6.03063e-03
9.60000e+02,5.96590e-03
9.61000e+02,5.93391e-03
9.62000e+02,5.92830e-03
9.63000e+02,5.93207e-03
9.64000e+02,5.92213e-03
9.65000e+02,5.86783e-03
9.66000e+02,5.84001e-03
9.67000e+02,5.90941e-03
9.68000e+02,6.04426e-03
9.69000e+02,6.14402e-03
9.70000e+02,6.14587e-03
9.71000e+02,6.10253e-03
9.72000e+02,6.03266e-03
9.73000e+02,6.02197e-03
9.74000e+02,6.02749e-03
9.75000e+02,6.09672e-03
9.76000e+02,6.16239e-03
9.77000e+02,6.23432e-03
9.78000e+02,6.27550e-03
9.79000e+02,6.28784e-03
9.80000e+02,6.21443e-03
9.81000e+02,6.14119e-03
9.82000e+02,6.06066e-03
9.83000e+02,6.04278e-03
9.84000e+02,6.03408e-03
9.85000e+02,6.04858e-03
9.86000e+02,6.03906e-03
9.87000e+02,5.99182e-03
9.88000e+02,5.94500e-03
9.89000e+02,5.94602e-03
9.90000e+02,5.98233e-03
9.91000e+02,6.03709e-03
9.92000e+02,6.03803e-03
9.93000e+02,5.99524e-03
9.94000e+02,5.92828e-03
9.95000e+02,5.87529e-03
9.96000e+02,5.81706e-03
9.97000e+02,5.80300e-03
9.98000e+02,5.75690e-03
9.99000e+02,5.75868e-03
1.00000e+03,5.74624e-03
1.00100e+03,5.78446e-03
1.00200e+03,5.77010e-03
1.00300e+03,5.77010e-03
1.00400e+03,5.75792e-03
1.00500e+03,5.71052e-03
1.00600e+03,5.62676e-03
1.00700e+03,5.54823e-03
1.00800e+03,5.48885e-03
1.00900e+03,5.45143e-03
1.01000e+03,5.43031e-03
1.01100e+03,5.38624e-03
1.01200e+03,5.32353e-03
1.01300e+03,5.25302e-03
1.01400e+03,5.22706e-03
1.01500e+03,5.26502e-03
1.01600e+03,5.35484e-03
1.01700e+03,5.47360e-03
1.01800e+03,5.54715e-03
1.01900e+03,5.58612e-03
1.02000e+03,5.60176e-03
1.02100e+03,5.67992e-03
1.02200e+03,5.78385e-03
1.02300e+03,5.92167e-03
1.02400e+03,5.99915e-03
1.02500e+03,5.98072e-03
1.02600e+03,5.85876e-03
1.02700e+03,5.74147e-03
1.02800e+03,5.61244e-03
1.02900e+03,5.48724e-03
1.03000e+03,5.37924e-03
1.03100e+03,5.30802e-03
1.03200e+03,5.26836e-03
1.03300e+03,5.30856e-03
1.03400e+03,5.38451e-03
1.03500e+03,5.43885e-03
1.03600e+03,5.46565e-03
1.03700e+03,5.53739e-03
1.03800e+03,5.60069e-03
1.03900e+03,5.69493e-03
1.04000e+03,5.74218e-03
1.04100e+03,5.81193e-03
1.04200e+03,5.91261e-03
1.04300e+03,6.04979e-03
1.04400e+03,6.08757e-03
1.04500e+03,6.08757e-03
1.04600e+03,6.08362e-03
1.04700e+03,6.16857e-03
1.04800e+03,6.26565e-03
1.04900e+03,6.36980e-03
1.05000e+03,6.50245e-03
1.05100e+03,6.66250e-03
1.05200e+03,6.81806e-03
1.05300e+03,6.89750e-03
1.05400e+03,6.94984e-03
1.05500e+03,7.00003e-03
1.05600e+03,7.11067e-03
1.05700e+03,7.20528e-03
1.05800e+03,7.19691e-03
1.05900e+03,7.04021e-03
1.06000e+03,6.83471e-03
1.06100e+03,6.64302e-03
1.06200e+03,6.50977e-03
1.06300e+03,6.42855e-03
1.06400e+03,6.39485e-03
1.06500e+03,6.40834e-03
1.06600e+03,6.44191e-03
1.06700e+03,6.47135e-03
1.06800e+03,6.47547e-03
1.06900e+03,6.45106e-03
1.07000e+03,6.45438e-03
1.07100e+03,6.47873e-03
1.07200e+03,6.48473e-03
1.07300e+03,6.46955e-03
1.07400e+03,6.41960e-03
1.07500e+03,6.34646e-03
1.07600e+03,6.25476e-03
1.07700e+03,6.17303e-03
1.07800e+03,6.13434e-03
1.07900e+03,6.13434e-03
1.08000e+03,6.15232e-03
1.08100e+03,6.16823e-03
1.08200e+03,6.18600e-03
1.08300e+03,6.27410e-03
1.08400e+03,6.37978e-03
1.08500e+03,6.49485e-03
1.08600e+03,6.57328e-03
1.08700e+03,6.64768e-03
1.08800e+03,6.67414e-03
1.08900e+03,6.67385e-03
1.09000e+03,6.61142e-03
1.09100e+03,6.54616e-03
1.09200e+03,6.50169e-03
1.09300e+03,6.53449e-03
1.09400e+03,6.56704e-03
1.09500e+03,6.56704e-03
1.09600e+03,6.54781e-03
1.09700e+03,6.49423e-03
1.09800e+03,6.41943e-03
1.09900e+03,6.33781e-03
1.10000e+03,6.31908e-03
1.10100e+03,6.31095e-03
1.10200e+03,6.32081e-03
1.10300e+03,6.32081e-03
1.10400e+03,6.34113e-03
1.10500e+03,6.37759e-03
1.10600e+03,6.42112e-03
1.10700e+03,6.39757e-03
1.10800e+03,6.35606e-03
1.10900e+03,6.33910e-03
1.11000e+03,6.37669e-03
1.11100e+03,6.41706e-03
1.11200e+03,6.38632e-03
1.11300e+03,6.30286e-03
1.11400e+03,6.20083e-03
1.11500e+03,6.12537e-03
1.11600e+03,6.10448e-03
1.11700e+03,6.12304e-03
1.11800e+03,6.16434e-03
1.11900e+03,6.21212e-03
1.12000e+03,6.23974e-03
1.12100e+03,6.15014e-03
1.12200e+03,6.02747e-03
1.12300e+03,5.91013e-03
1.12400e+03,5.81009e-03
1.12500e+03,5.75279e-03
1.12600e+03,5.77359e-03
1.12700e+03,5.79065e-03
1.12800e+03,5.69637e-03
1.12900e+03,5.58693e-03
1.13000e+03,5.47125e-03
1.13100e+03,5.39050e-03
1.13200e+03,5.30426e-03
1.13300e+03,5.23301e-03
1.13400e+03,5.17699e-03
1.13500e+03,5.22114e-03
1.13600e+03,5.28566e-03
1.13700e+03,5.33204e-03
1.13800e+03,5.28880e-03
1.13900e+03,5.23542e-03
1.14000e+03,5.18833e-03
1.14100e+03,5.14494e-03
1.14200e+03,5.05357e-03
1.14300e+03,4.96216e-03
1.14400e+03,4.86554e-03
1.14500e+03,4.74021e-03
1.14600e+03,4.58779e-03
1.14700e+03,4.41382e-03
1.14800e+03,4.25139e-03
1.14900e+03,4.15922e-03
1.15000e+03,4.14341e-03
1.15100e+03,4.17796e-03
1.15200e+03,4.22686e-03
1.15300e+03,4.25408e-03
1.15400e+03,4.28664e-03
1.15500e+03,4.30123e-03
1.15600e+03,4.31091e-03
1.15700e+03,4.28948e-03
1.15800e+03,4.26376e-03
1.15900e+03,4.21022e-03
1.16000e+03,4.15129e-03
1.16100e+03,4.08722e-03
1.16200e+03,4.04407e-03
1.16300e+03,4.03281e-03
1.16400e+03,4.03281e-03
1.16500e+03,4.04392e-03
1.16600e+03,4.05823e-03
1.16700e+03,4.10547e-03
1.16800e+03,4.16059e-03
1.16900e+03,4.21890e-03
1.17000e+03,4.26704e-03
1.17100e+03,4.30230e-03
1.17200e+03,4.29743e-03
1.17300e+03,4.24212e-03
1.17400e+03,4.13253e-03
1.17500e+03,4.02685e-03
1.17600e+03,3.95850e-03
1.17700e+03,3.96922e-03
1.17800e+03,3.99455e-03
1.17900e+03,4.03047e-03
1.18000e+03,4.05020e-03
1.18100e+03,4.12077e-03
1.18200e+03,4.17051e-03
1.18300e+03,4.18683e-03
1.18400e+03,4.16785e-03
1.18500e+03,4.18793e-03
1.18600e+03,4.27999e-03
1.18700e+03,4.38225e-03
1.18800e+03,4.47610e-03
1.18900e+03,4.53042e-03
1.19000e+03,4.59605e-03
1.19100e+03,4.63545e-03
1.19200e+03,4.70728e-03
1.19300e+03,4.77262e-03
1.19400e+03,4.82182e-03
1.19500e+03,4.81266e-03
1.19600e+03,4.79663e-03
1.19700e+03,4.78635e-03
1.19800e+03,4.83928e-03
1.19900e+03,4.89564e-03
1.20000e+03,4.94099e-03
1.20100e+03,4.98300e-03
1.20200e+03,4.98320e-03
1.20300e+03,4.98980e-03
1.20400e+03,4.96657e-03
1.20500e+03,4.95805e-03
1.20600e+03,4.94788e-03
1.20700e+03,4.91932e-03
1.20800e+03,4.90076e-03
1.20900e+03,4.85946e-03
1.21000e+03,4.81076e-03
1.21100e+03,4.74579e-03
1.21200e+03,4.74085e-03
1.21300e+03,4.77378e-03
1.21400e+03,4.84563e-03
1.21500e+03,4.95003e-03
1.21600e+03,5.00011e-03
1.21700e+03,4.99174e-03
1.21800e+03,4.96929e-03
1.21900e+03,5.02373e-03
1.22000e+03,5.08929e-03
1.22100e+03,5.13718e-03
1.22200e+03,5.11118e-03
1.22300e+03,5.04792e-03
1.22400e+03,4.94938e-03
1.22500e+03,4.87148e-03
1.22600e+03,4.78956e-03
1.22700e+03,4.75811e-03
1.22800e+03,4.72036e-03
1.22900e+03,4.73935e-03
1.23000e+03,4.74147e-03
1.23100e+03,4.75596e-03
1.23200e+03,4.75811e-03
1.23300e+03,4.83756e-03
1.23400e+03,4.95927e-03
1.23500e+03,5.13131e-03
1.23600e+03,5.28653e-03
1.23700e+03,5.40196e-03
1.23800e+03,5.47364e-03
1.23900e+03,5.54014e-03
1.24000e+03,5.56523e-03
1.24100e+03,5.62067e-03
1.24200e+03,5.67698e-03
1.24300e+03,5.74783e-03
1.24400e+03,5.81561e-03
1.24500e+03,5.84788e-03
1.24600e+03,5.84129e-03
1.24700e+03,5.78936e-03
1.24800e+03,5.72913e-03
1.24900e+03,5.68386e-03
1.25000e+03,5.66898e-03
1.25100e+03,5.68402e-03
1.25200e+03,5.69830e-03
1.25300e+03,5.71494e-03
1.25400e+03,5.71199e-03
1.25500e+03,5.71199e-03
1.25600e+03,5.70088e-03
1.25700e+03,5.70058e-03
1.25800e+03,5.68799e-03
1.25900e+03,5.68916e-03
1.26000e+03,5.66049e-03
1.26100e+03,5.62485e-03
1.26200e+03,5.56389e-03
1.26300e+03,5.52623e-03
1.26400e+03,5.51343e-03
1.26500e+03,5.56061e-03
1.26600e+03,5.57094e-03
1.26700e+03,5.56587e-03
1.26800e+03,5.51688e-03
1.26900e+03,5.46793e-03
1.27000e+03,5.37584e-03
1.27100e+03,5.28941e-03
1.27200e+03,5.19050e-03
1.27300e+03,5.15692e-03
1.27400e+03,5.14458e-03
1.27500e+03,5.17421e-03
1.27600e+03,5.13906e-03
1.27700e+03,5.04699e-03
1.27800e+03,4.94474e-03
1.27900e+03,4.86771e-03
1.28000e+03,4.86500e-03
1.28100e+03,4.87999e-03
1.28200e+03,4.90572e-03
1.28300e+03,4.89998e-03
1.28400e+03,4.87889e-03
1.28500e+03,4.85880e-03
1.28600e+03,4.88823e-03
1.28700e+03,4.93262e-03
1.28800e+03,4.95792e-03
1.28900e+03,4.93872e-03
1.29000e+03,4.89397e-03
1.29100e+03,4.82067e-03
1.29200e+03,4.70632e-03
1.29300e+03,4.60538e-03
1.29400e+03,4.52613e-03
1.29500e+03,4.48995e-03
1.29600e+03,4.48846e-03
1.29700e+03,4.46562e-03
1.29800e+03,4.46605e-03
1.29900e+03,4.46605e-03
1.30000e+03,4.48608e-03
1.30100e+03,4.50009e-03
1.30200e+03,4.52904e-03
1.30300e+03,4.55327e-03
1.30400e+03,4.57370e-03
1.30500e+03,4.56617e-03
1.30600e+03,4.52622e-03
1.30700e+03,4.52096e-03
1.30800e+03,4.53718e-03
1.30900e+03,4.54329e-03
1.31000e+03,4.52484e-03
1.31100e+03,4.46354e-03
1.31200e+03,4.41565e-03
1.31300e+03,4.42492e-03
1.31400e+03,4.47438e-03
1.31500e+03,4.56395e-03
1.31600e+03,4.61858e-03
1.31700e+03,4.66252e-03
1.31800e+03,4.64726e-03
1.31900e+03,4.63955e-03
1.32000e+03,4.56564e-03
1.32100e+03,4.48866e-03
1.32200e+03,4.37187e-03
1.32300e+03,4.26215e-03
1.32400e+03,4.13639e-03
1.32500e+03,3.96345e-03
1.32600e+03,3.81595e-03
1.32700e+03,3.73418e-03
1.32800e+03,3.73524e-03
1.32900e+03,3.75593e-03
1.33000e+03,3.78106e-03
1.33100e+03,3.83166e-03
1.33200e+03,3.84973e-03
1.33300e+03,3.81741e-03
1.33400e+03,3.77807e-03
1.33500e+03,3.79793e-03
1.33600e+03,3.87664e-03
1.33700e+03,3.94137e-03
1.33800e+03,3.98396e-03
1.33900e+03,4.02569e-03
1.34000e+03,4.04103e-03
1.34100e+03,4.05845e-03
1.34200e+03,4.04340e-03
1.34300e+03,4.05304e-03
1.34400e+03,4.03640e-03
1.34500e+03,4.03640e-03
1.34600e+03,4.03640e-03
1.34700e+03,4.05476e-03
1.34800e+03,4.07731e-03
1.34900e+03,4.12178e-03
1.35000e+03,4.15938e-03
1.35100e+03,4.25944e-03
1.35200e+03,4.36012e-03
1.35300e+03,4.48860e-03
1.35400e+03,4.62359e-03
1.35500e+03,4.81160e-03
1.35600e+03,4.96428e-03
1.35700e+03,5.11715e-03
1.35800e+03,5.21828e-03
1.35900e+03,5.29848e-03
1.36000e+03,5.37317e-03
1.36100e+03,5.46668e-03
1.36200e+03,5.59161e-03
1.36300e+03,5.68054e-03
1.36400e+03,5.67951e-03
1.36500e+03,5.64671e-03
1.36600e+03,5.59473e-03
1.36700e+03,5.57952e-03
1.36800e+03,5.58370e-03
1.36900e+03,5.60346e-03
1.37000e+03,5.63290e-03
1.37100e+03,5.64381e-03
1.37200e+03,5.61319e-03
1.37300e+03,5.54769e-03
1.37400e+03,5.48541e-03
1.37500e+03,5.48259e-03
1.37600e+03,5.51523e-03
1.37700e+03,5.53484e-03
1.37800e+03,5.49085e-03
1.37900e+03,5.40351e-03
1.38000e+03,5.30351e-03
1.38100e+03,5.22999e-03
1.38200e+03,5.21745e-03
1.38300e+03,5.24465e-03
1.38400e+03,5.24465e-03
1.38500e+03,5.24465e-03
1.38600e+03,5.24465e-03
1.38700e+03,5.21974e-03
1.38800e+03,5.22784e-03
1.38900e+03,5.22343e-03
1.39000e+03,5.22360e-03
1.39100e+03,5.20357e-03
1.39200e+03,5.18956e-03
1.39300e+03,5.16061e-03
1.39400e+03,5.13672e-03
1.39500e+03,5.08369e-03
1.39600e+03,5.01972e-03
1.39700e+03,4.94317e-03
1.39800e+03,4.87122e-03
1.39900e+03,4.78857e-03
1.40000e+03,4.74186e-03
1.40100e+03,4.70620e-03
1.40200e+03,4.70229e-03
1.40300e+03,4.70262e-03
1.40400e+03,4.69369e-03
1.40500e+03,4.64457e-03
1.40600e+03,4.55533e-03
1.40700e+03,4.48663e-03
1.40800e+03,4.44302e-03
1.40900e+03,4.42555e-03
1.41000e+03,4.42005e-03
1.41100e+03,4.42039e-03
1.41200e+03,4.42073e-03
1.41300e+03,4.41695e-03
1.41400e+03,4.40954e-03
1.41500e+03,4.37216e-03
1.41600e+03,4.35958e-03
1.41700e+03,4.30486e-03
1.41800e+03,4.22051e-03
1.41900e+03,4.10435e-03
1.42000e+03,4.00571e-03
1.42100e+03,3.91441e-03
1.42200e+03,3.80542e-03
1.42300e+03,3.69930e-03
1.42400e+03,3.61812e-03
1.42500e+03,3.53805e-03
1.42600e+03,3.42110e-03
1.42700e+03,3.27199e-03
1.42800e+03,3.13586e-03
1.42900e+03,3.01926e-03
1.43000e+03,2.91288e-03
1.43100e+03,2.84754e-03
1.43200e+03,2.80836e-03
1.43300e+03,2.80870e-03
1.43400e+03,2.78512e-03
1.43500e+03,2.78546e-03
1.43600e+03,2.78580e-03
1.43700e+03,2.78614e-03
1.43800e+03,2.76811e-03
1.43900e+03,2.73190e-03