Pixels #,Intensity (a.u.)
0.00000e+00,9.60124e-03
1.00000e+00,9.64392e-03
2.00000e+00,9.72269e-03
3.00000e+00,9.79739e-03
4.00000e+00,9.87881e-03
5.00000e+00,9.94563e-03
6.00000e+00,9.99352e-03
7.00000e+00,9.98627e-03
8.00000e+00,9.92972e-03
9.00000e+00,9.83229e-03
1.00000e+01,9.73557e-03
1.10000e+01,9.67523e-03
1.20000e+01,9.70635e-03
1.30000e+01,9.77693e-03
1.40000e+01,9.85417e-03
1.50000e+01,9.88504e-03
1.60000e+01,9.89319e-03
1.70000e+01,9.84611e-03
1.80000e+01,9.74460e-03
1.90000e+01,9.62244e-03
2.00000e+01,9.50902e-03
2.10000e+01,9.41498e-03
2.20000e+01,9.39005e-03
2.30000e+01,9.38623e-03
2.40000e+01,9.34927e-03
2.50000e+01,9.26821e-03
2.60000e+01,9.17848e-03
2.70000e+01,9.10904e-03
2.80000e+01,9.05149e-03
2.90000e+01,9.00751e-03
3.00000e+01,9.00102e-03
3.10000e+01,9.02244e-03
3.20000e+01,9.03122e-03
3.30000e+01,8.98331e-03
3.40000e+01,8.88939e-03
3.50000e+01,8.82263e-03
3.60000e+01,8.80056e-03
3.70000e+01,8.84738e-03
3.80000e+01,8.89395e-03
3.90000e+01,8.95709e-03
4.00000e+01,8.98943e-03
4.10000e+01,9.03131e-03
4.20000e+01,9.06514e-03
4.30000e+01,9.07006e-03
4.40000e+01,9.00353e-03
4.50000e+01,8.88137e-03
4.60000e+01,8.77176e-03
4.70000e+01,8.76665e-03
4.80000e+01,8.81573e-03
4.90000e+01,8.82182e-03
5.00000e+01,8.74403e-03
5.10000e+01,8.59584e-03
5.20000e+01,8.48517e-03
5.30000e+01,8.48051e-03
5.40000e+01,8.55655e-03
5.50000e+01,8.58514e-03
5.60000e+01,8.57838e-03
5.70000e+01,8.56699e-03
5.80000e+01,8.64045e-03
5.90000e+01,8.73225e-03
6.00000e+01,8.83385e-03
6.10000e+01,8.88296e-03
6.20000e+01,8.89344e-03
6.30000e+01,8.92828e-03
6.40000e+01,8.96212e-03
6.50000e+01,9.01378e-03
6.60000e+01,9.00197e-03
6.70000e+01,8.96660e-03
6.80000e+01,8.95014e-03
6.90000e+01,9.00643e-03
7.00000e+01,9.08272e-03
7.10000e+01,9.11069e-03
7.20000e+01,9.08898e-03
7.30000e+01,9.04986e-03
7.40000e+01,9.04075e-03
7.50000e+01,9.05764e-03
7.60000e+01,9.06285e-03
7.70000e+01,9.02488e-03
7.80000e+01,8.95094e-03
7.90000e+01,8.89742e-03
8.00000e+01,8.86121e-03
8.10000e+01,8.76262e-03
8.20000e+01,8.60208e-03
8.30000e+01,8.42005e-03
8.40000e+01,8.28541e-03
8.50000e+01,8.16085e-03
8.60000e+01,8.06838e-03
8.70000e+01,8.01478e-03
8.80000e+01,8.04016e-03
8.90000e+01,8.10555e-03
9.00000e+01,8.15029e-03
9.10000e+01,8.12369e-03
9.20000e+01,7.99518e-03
9.30000e+01,7.79824e-03
9.40000e+01,7.61667e-03
9.50000e+01,7.46757e-03
9.60000e+01,7.35323e-03
9.70000e+01,7.27166e-03
9.80000e+01,7.28750e-03
9.90000e+01,7.40599e-03
1.00000e+02,7.58262e-03
1.01000e+02,7.71301e-03
1.02000e+02,7.78598e-03
1.03000e+02,7.74313e-03
1.04000e+02,7.71094e-03
1.05000e+02,7.64969e-03
1.06000e+02,7.63032e-03
1.07000e+02,7.58191e-03
1.08000e+02,7.62435e-03
1.09000e+02,7.76181e-03
1.10000e+02,7.93286e-03
1.11000e+02,8.04401e-03
1.12000e+02,8.09487e-03
1.13000e+02,8.08136e-03
1.14000e+02,8.06526e-03
1.15000e+02,8.09141e-03
1.16000e+02,8.17251e-03
1.17000e+02,8.24889e-03
1.18000e+02,8.27769e-03
1.19000e+02,8.24045e-03
1.20000e+02,8.20418e-03
1.21000e+02,8.17789e-03
1.22000e+02,8.16439e-03
1.23000e+02,8.14132e-03
1.24000e+02,8.13375e-03
1.25000e+02,8.14874e-03
1.26000e+02,8.17369e-03
1.27000e+02,8.22190e-03
1.28000e+02,8.28397e-03
1.29000e+02,8.36221e-03
1.30000e+02,8.39863e-03
1.31000e+02,8.39316e-03
1.32000e+02,8.35427e-03
1.33000e+02,8.33220e-03
1.34000e+02,8.34471e-03
1.35000e+02,8.41023e-03
1.36000e+02,8.49664e-03
1.37000e+02,8.58338e-03
1.38000e+02,8.67308e-03
1.39000e+02,8.72921e-03
1.40000e+02,8.79969e-03
1.41000e+02,8.89171e-03
1.42000e+02,8.97800e-03
1.43000e+02,9.01715e-03
1.44000e+02,9.00309e-03
1.45000e+02,9.01956e-03
1.46000e+02,9.11410e-03
1.47000e+02,9.25620e-03
1.48000e+02,9.37436e-03
1.49000e+02,9.42101e-03
1.50000e+02,9.41555e-03
1.51000e+02,9.35260e-03
1.52000e+02,9.28564e-03
1.53000e+02,9.20767e-03
1.54000e+02,9.12298e-03
1.55000e+02,9.03598e-03
1.56000e+02,9.01276e-03
1.57000e+02,9.10494e-03
1.58000e+02,9.31848e-03
1.59000e+02,9.54563e-03
1.60000e+02,9.75687e-03
1.61000e+02,9.90624e-03
1.62000e+02,1.00770e-02
1.63000e+02,1.02416e-02
1.64000e+02,1.04057e-02
1.65000e+02,1.04943e-02
1.66000e+02,1.05317e-02
1.67000e+02,1.05849e-02
1.68000e+02,1.06985e-02
1.69000e+02,1.08632e-02
1.70000e+02,1.10143e-02
1.71000e+02,1.11326e-02
1.72000e+02,1.12735e-02
1.73000e+02,1.14544e-02
1.74000e+02,1.17045e-02
1.75000e+02,1.19573e-02
1.76000e+02,1.22083e-02
1.77000e+02,1.24049e-02
1.78000e+02,1.25443e-02
1.79000e+02,1.25633e-02
1.80000e+02,1.25103e-02
1.81000e+02,1.24334e-02
1.82000e+02,1.24461e-02
1.83000e+02,1.25334e-02
1.84000e+02,1.26986e-02
1.85000e+02,1.28619e-02
1.86000e+02,1.29708e-02
1.87000e+02,1.30056e-02
1.88000e+02,1.29651e-02
1.89000e+02,1.28914e-02
1.90000e+02,1.27873e-02
1.91000e+02,1.26940e-02
1.92000e+02,1.26313e-02
1.93000e+02,1.25981e-02
1.94000e+02,1.26154e-02
1.95000e+02,1.26086e-02
1.96000e+02,1.26167e-02
1.97000e+02,1.25785e-02
1.98000e+02,1.25458e-02
1.99000e+02,1.24517e-02
2.00000e+02,1.23381e-02
2.01000e+02,1.22775e-02
2.02000e+02,1.23211e-02
2.03000e+02,1.24533e-02
2.04000e+02,1.25681e-02
2.05000e+02,1.26479e-02
2.06000e+02,1.26713e-02
2.07000e+02,1.26854e-02
2.08000e+02,1.27286e-02
2.09000e+02,1.28596e-02
2.10000e+02,1.30285e-02
2.11000e+02,1.31763e-02
2.12000e+02,1.32052e-02
2.13000e+02,1.32301e-02
2.14000e+02,1.32718e-02
2.15000e+02,1.34142e-02
2.16000e+02,1.35639e-02
2.17000e+02,1.36734e-02
2.18000e+02,1.36473e-02
2.19000e+02,1.34942e-02
2.20000e+02,1.32904e-02
2.21000e+02,1.31166e-02
2.22000e+02,1.30079e-02
2.23000e+02,1.29260e-02
2.24000e+02,1.28411e-02
2.25000e+02,1.27567e-02
2.26000e+02,1.26611e-02
2.27000e+02,1.26093e-02
2.28000e+02,1.25690e-02
2.29000e+02,1.25836e-02
2.30000e+02,1.26019e-02
2.31000e+02,1.26245e-02
2.32000e+02,1.25974e-02
2.33000e+02,1.25476e-02
2.34000e+02,1.24834e-02
2.35000e+02,1.23965e-02
2.36000e+02,1.22672e-02
2.37000e+02,1.21246e-02
2.38000e+02,1.19989e-02
2.39000e+02,1.19137e-02
2.40000e+02,1.18421e-02
2.41000e+02,1.17958e-02
2.42000e+02,1.17891e-02
2.43000e+02,1.18610e-02
2.44000e+02,1.19543e-02
2.45000e+02,1.20371e-02
2.46000e+02,1.20390e-02
2.47000e+02,1.19437e-02
2.48000e+02,1.17844e-02
2.49000e+02,1.15990e-02
2.50000e+02,1.14643e-02
2.51000e+02,1.13319e-02
2.52000e+02,1.12007e-02
2.53000e+02,1.10241e-02
2.54000e+02,1.08515e-02
2.55000e+02,1.06910e-02
2.56000e+02,1.05888e-02
2.57000e+02,1.05021e-02
2.58000e+02,1.04469e-02
2.59000e+02,1.03868e-02
2.60000e+02,1.03255e-02
2.61000e+02,1.02592e-02
2.62000e+02,1.01888e-02
2.63000e+02,1.01033e-02
2.64000e+02,9.96626e-03
2.65000e+02,9.75983e-03
2.66000e+02,9.57273e-03
2.67000e+02,9.36257e-03
2.68000e+02,9.20770e-03
2.69000e+02,9.06248e-03
2.70000e+02,9.04906e-03
2.71000e+02,9.03951e-03
2.72000e+02,9.04706e-03
2.73000e+02,9.01612e-03
2.74000e+02,9.04753e-03
2.75000e+02,9.04787e-03
2.76000e+02,9.02881e-03
2.77000e+02,8.96175e-03
2.78000e+02,8.94655e-03
2.79000e+02,9.01051e-03
2.80000e+02,9.14994e-03
2.81000e+02,9.29525e-03
2.82000e+02,9.39334e-03
2.83000e+02,9.44407e-03
2.84000e+02,9.48944e-03
2.85000e+02,9.51803e-03
2.86000e+02,9.55707e-03
2.87000e+02,9.59467e-03
2.88000e+02,9.69651e-03
2.89000e+02,9.80696e-03
2.90000e+02,9.89226e-03
2.91000e+02,9.90439e-03
2.92000e+02,9.88077e-03
2.93000e+02,9.87278e-03
2.94000e+02,9.88286e-03
2.95000e+02,9.89151e-03
2.96000e+02,9.87995e-03
2.97000e+02,9.86102e-03
2.98000e+02,9.81832e-03
2.99000e+02,9.70545e-03
3.00000e+02,9.49287e-03
3.01000e+02,9.29660e-03
3.02000e+02,9.11577e-03
3.03000e+02,9.03615e-03
3.04000e+02,8.92976e-03
3.05000e+02,8.79421e-03
3.06000e+02,8.58520e-03
3.07000e+02,8.39730e-03
3.08000e+02,8.23376e-03
3.09000e+02,8.18222e-03
3.10000e+02,8.17398e-03
3.11000e+02,8.15790e-03
3.12000e+02,8.10990e-03
3.13000e+02,8.06963e-03
3.14000e+02,8.04270e-03
3.15000e+02,8.04566e-03
3.16000e+02,8.06411e-03
3.17000e+02,8.10509e-03
3.18000e+02,8.07055e-03
3.19000e+02,8.01155e-03
3.20000e+02,7.88403e-03
3.21000e+02,7.79359e-03
3.22000e+02,7.77905e-03
3.23000e+02,7.87862e-03
3.24000e+02,7.97141e-03
3.25000e+02,8.01513e-03
3.26000e+02,8.01250e-03
3.27000e+02,7.98986e-03
3.28000e+02,7.97998e-03
3.29000e+02,7.96574e-03
3.30000e+02,7.95760e-03
3.31000e+02,7.94590e-03
3.32000e+02,7.94351e-03
3.33000e+02,7.95195e-03
3.34000e+02,7.89281e-03
3.35000e+02,7.80080e-03
3.36000e+02,7.75678e-03
3.37000e+02,7.87235e-03
3.38000e+02,8.09681e-03
3.39000e+02,8.27296e-03
3.40000e+02,8.33552e-03
3.41000e+02,8.24791e-03
3.42000e+02,8.13268e-03
3.43000e+02,8.03594e-03
3.44000e+02,8.03235e-03
3.45000e+02,8.01121e-03
3.46000e+02,7.99855e-03
3.47000e+02,7.93560e-03
3.48000e+02,7.90894e-03
3.49000e+02,7.82027e-03
3.50000e+02,7.68753e-03
3.51000e+02,7.53741e-03
3.52000e+02,7.48156e-03
3.53000e+02,7.49138e-03
3.54000e+02,7.56954e-03
3.55000e+02,7.62817e-03
3.56000e+02,7.61699e-03
3.57000e+02,7.46917e-03
3.58000e+02,7.35640e-03
3.59000e+02,7.24927e-03
3.60000e+02,7.18678e-03
3.61000e+02,7.07434e-03
3.62000e+02,6.98403e-03
3.63000e+02,6.92601e-03
3.64000e+02,6.90945e-03
3.65000e+02,6.88537e-03
3.66000e+02,6.85423e-03
3.67000e+02,6.79057e-03
3.68000e+02,6.76740e-03
3.69000e+02,6.73579e-03
3.70000e+02,6.73256e-03
3.71000e+02,6.63942e-03
3.72000e+02,6.45439e-03
3.73000e+02,6.24822e-03
3.74000e+02,6.10440e-03
3.75000e+02,6.04193e-03
3.76000e+02,6.04495e-03
3.77000e+02,6.05989e-03
3.78000e+02,6.08024e-03
3.79000e+02,6.03981e-03
3.80000e+02,5.96717e-03
3.81000e+02,5.87106e-03
3.82000e+02,5.81775e-03
3.83000e+02,5.77298e-03
3.84000e+02,5.68630e-03
3.85000e+02,5.57233e-03
3.86000e+02,5.48404e-03
3.87000e+02,5.45183e-03
3.88000e+02,5.46268e-03
3.89000e+02,5.45608e-03
3.90000e+02,5.46742e-03
3.91000e+02,5.48009e-03
3.92000e+02,5.48369e-03
3.93000e+02,5.48570e-03
3.94000e+02,5.47137e-03
3.95000e+02,5.44581e-03
3.96000e+02,5.44130e-03
3.97000e+02,5.45531e-03
3.98000e+02,5.47527e-03
3.99000e+02,5.51126e-03
4.00000e+02,5.54219e-03
4.01000e+02,5.57569e-03
4.02000e+02,5.65795e-03
4.03000e+02,5.71464e-03
4.04000e+02,5.74944e-03
4.05000e+02,5.73312e-03
4.06000e+02,5.68116e-03
4.07000e+02,5.60750e-03
4.08000e+02,5.58191e-03
4.09000e+02,5.60755e-03
4.10000e+02,5.60755e-03
4.11000e+02,5.60755e-03
4.12000e+02,5.61092e-03
4.13000e+02,5.60744e-03
4.14000e+02,5.50733e-03
4.15000e+02,5.43214e-03
4.16000e+02,5.38526e-03
4.17000e+02,5.43355e-03
4.18000e+02,5.48336e-03
4.19000e+02,5.60740e-03
4.20000e+02,5.72526e-03
4.21000e+02,5.86000e-03
4.22000e+02,5.93536e-03
4.23000e+02,5.97886e-03
4.24000e+02,5.96106e-03
4.25000e+02,5.94307e-03
4.26000e+02,5.95264e-03
4.27000e+02,5.97515e-03
4.28000e+02,5.93457e-03
4.29000e+02,5.83364e-03
4.30000e+02,5.76136e-03
4.31000e+02,5.72545e-03
4.32000e+02,5.73546e-03
4.33000e+02,5.72572e-03
4.34000e+02,5.73458e-03
4.35000e+02,5.67471e-03
4.36000e+02,5.64724e-03
4.37000e+02,5.60238e-03
4.38000e+02,5.60981e-03
4.39000e+02,5.63960e-03
4.40000e+02,5.75138e-03
4.41000e+02,5.88058e-03
4.42000e+02,5.97172e-03
4.43000e+02,5.96369e-03
4.44000e+02,5.89913e-03
4.45000e+02,5.75616e-03
4.46000e+02,5.62792e-03
4.47000e+02,5.62520e-03
4.48000e+02,5.82083e-03
4.49000e+02,6.06682e-03
4.50000e+02,6.28117e-03
4.51000e+02,6.40612e-03
4.52000e+02,6.46899e-03
4.53000e+02,6.50942e-03
4.54000e+02,6.57198e-03
4.55000e+02,6.64878e-03
4.56000e+02,6.69788e-03
4.57000e+02,6.69263e-03
4.58000e+02,6.68180e-03
4.59000e+02,6.64062e-03
4.60000e+02,6.61654e-03
4.61000e+02,6.53179e-03
4.62000e+02,6.47600e-03
4.63000e+02,6.48520e-03
4.64000e+02,6.56330e-03
4.65000e+02,6.65133e-03
4.66000e+02,6.68696e-03
4.67000e+02,6.66154e-03
4.68000e+02,6.60732e-03
4.69000e+02,6.50676e-03
4.70000e+02,6.35220e-03
4.71000e+02,6.26518e-03
4.72000e+02,6.25256e-03
4.73000e+02,6.30247e-03
4.74000e+02,6.37714e-03
4.75000e+02,6.49768e-03
4.76000e+02,6.53654e-03
4.77000e+02,6.53417e-03
4.78000e+02,6.46854e-03
4.79000e+02,6.39197e-03
4.80000e+02,6.38073e-03
4.81000e+02,6.47660e-03
4.82000e+02,6.70161e-03
4.83000e+02,6.96880e-03
4.84000e+02,7.20287e-03
4.85000e+02,7.40960e-03
4.86000e+02,7.58384e-03
4.87000e+02,7.73201e-03
4.88000e+02,7.79500e-03
4.89000e+02,7.78347e-03
4.90000e+02,7.72118e-03
4.91000e+02,7.61956e-03
4.92000e+02,7.52708e-03
4.93000e+02,7.47259e-03
4.94000e+02,7.53781e-03
4.95000e+02,7.64811e-03
4.96000e+02,7.79016e-03
4.97000e+02,7.90302e-03
4.98000e+02,8.03064e-03
4.99000e+02,8.14210e-03
5.00000e+02,8.23891e-03
5.01000e+02,8.27642e-03
5.02000e+02,8.27642e-03
5.03000e+02,8.23994e-03
5.04000e+02,8.18825e-03
5.05000e+02,8.16833e-03
5.06000e+02,8.17193e-03
5.07000e+02,8.23767e-03
5.08000e+02,8.32894e-03
5.09000e+02,8.51689e-03
5.10000e+02,8.64408e-03
5.11000e+02,8.74989e-03
5.12000e+02,8.78556e-03
5.13000e+02,8.85898e-03
5.14000e+02,8.92587e-03
5.15000e+02,8.99188e-03
5.16000e+02,9.03671e-03
5.17000e+02,9.03160e-03
5.18000e+02,8.95674e-03
5.19000e+02,8.83583e-03
5.20000e+02,8.74707e-03
5.21000e+02,8.68698e-03
5.22000e+02,8.62570e-03
5.23000e+02,8.56662e-03
5.24000e+02,8.53289e-03
5.25000e+02,8.50214e-03
5.26000e+02,8.49763e-03
5.27000e+02,8.49763e-03
5.28000e+02,8.53048e-03
5.29000e+02,8.55142e-03
5.30000e+02,8.56992e-03
5.31000e+02,8.54855e-03
5.32000e+02,8.56681e-03
5.33000e+02,8.61543e-03
5.34000e+02,8.72462e-03
5.35000e+02,8.87131e-03
5.36000e+02,9.13115e-03
5.37000e+02,9.44138e-03
5.38000e+02,9.72733e-03
5.39000e+02,9.84681e-03
5.40000e+02,9.83338e-03
5.41000e+02,9.75751e-03
5.42000e+02,9.71336e-03
5.43000e+02,9.70972e-03
5.44000e+02,9.76004e-03
5.45000e+02,9.79537e-03
5.46000e+02,9.78638e-03
5.47000e+02,9.76830e-03
5.48000e+02,9.77342e-03
5.49000e+02,9.78702e-03
5.50000e+02,9.79395e-03
5.51000e+02,9.75549e-03
5.52000e+02,9.73150e-03
5.53000e+02,9.68392e-03
5.54000e+02,9.67177e-03
5.55000e+02,9.68505e-03
5.56000e+02,9.80777e-03
5.57000e+02,9.89250e-03
5.58000e+02,9.89890e-03
5.59000e+02,9.82878e-03
5.60000e+02,9.79391e-03
5.61000e+02,9.90330e-03
5.62000e+02,1.00633e-02
5.63000e+02,1.02899e-02
5.64000e+02,1.04618e-02
5.65000e+02,1.05344e-02
5.66000e+02,1.04937e-02
5.67000e+02,1.04927e-02
5.68000e+02,1.04999e-02
5.69000e+02,1.05131e-02
5.70000e+02,1.04631e-02
5.71000e+02,1.03873e-02
5.72000e+02,1.02410e-02
5.73000e+02,1.00033e-02
5.74000e+02,9.73251e-03
5.75000e+02,9.50290e-03
5.76000e+02,9.33439e-03
5.77000e+02,9.27047e-03
5.78000e+02,9.30423e-03
5.79000e+02,9.40245e-03
5.80000e+02,9.49795e-03
5.81000e+02,9.56233e-03
5.82000e+02,9.60256e-03
5.83000e+02,9.66255e-03
5.84000e+02,9.66712e-03
5.85000e+02,9.64872e-03
5.86000e+02,9.60238e-03
5.87000e+02,9.59958e-03
5.88000e+02,9.60204e-03
5.89000e+02,9.60022e-03
5.90000e+02,9.54873e-03
5.91000e+02,9.52551e-03
5.92000e+02,9.60382e-03
5.93000e+02,9.72353e-03
5.94000e+02,9.82835e-03
5.95000e+02,9.87644e-03
5.96000e+02,9.93770e-03
5.97000e+02,1.00584e-02
5.98000e+02,1.01680e-02
5.99000e+02,1.02134e-02
6.00000e+02,1.01363e-02
6.01000e+02,1.00485e-02
6.02000e+02,9.98477e-03
6.03000e+02,9.93902e-03
6.04000e+02,9.85854e-03
6.05000e+02,9.76565e-03
6.06000e+02,9.68742e-03
6.07000e+02,9.64958e-03
6.08000e+02,9.64386e-03
6.09000e+02,9.64386e-03
6.10000e+02,9.64042e-03
6.11000e+02,9.57981e-03
6.12000e+02,9.52491e-03
6.13000e+02,9.53194e-03
6.14000e+02,9.57030e-03
6.15000e+02,9.59836e-03
6.16000e+02,9.59836e-03
6.17000e+02,9.59825e-03
6.18000e+02,9.59825e-03
6.19000e+02,9.61574e-03
6.20000e+02,9.66156e-03
6.21000e+02,9.69925e-03
6.22000e+02,9.71942e-03
6.23000e+02,9.69818e-03
6.24000e+02,9.64715e-03
6.25000e+02,9.56027e-03
6.26000e+02,9.46498e-03
6.27000e+02,9.27335e-03
6.28000e+02,9.03837e-03
6.29000e+02,8.76928e-03
6.30000e+02,8.61873e-03
6.31000e+02,8.54600e-03
6.32000e+02,8.56879e-03
6.33000e+02,8.63912e-03
6.34000e+02,8.83471e-03
6.35000e+02,9.04440e-03
6.36000e+02,9.20556e-03
6.37000e+02,9.24431e-03
6.38000e+02,9.19718e-03
6.39000e+02,9.18674e-03
6.40000e+02,9.20801e-03
6.41000e+02,9.31580e-03
6.42000e+02,9.38752e-03
6.43000e+02,9.43812e-03
6.44000e+02,9.46937e-03
6.45000e+02,9.49935e-03
6.46000e+02,9.50069e-03
6.47000e+02,9.34958e-03
6.48000e+02,9.15137e-03
6.49000e+02,9.01113e-03
6.50000e+02,8.92772e-03
6.51000e+02,8.88759e-03
6.52000e+02,8.85096e-03
6.53000e+02,8.80765e-03
6.54000e+02,8.68533e-03
6.55000e+02,8.52645e-03
6.56000e+02,8.43155e-03
6.57000e+02,8.36211e-03
6.58000e+02,8.30512e-03
6.59000e+02,8.25754e-03
6.60000e+02,8.22500e-03
6.61000e+02,8.26187e-03
6.62000e+02,8.31214e-03
6.63000e+02,8.42510e-03
6.64000e+02,8.58826e-03
6.65000e+02,8.70420e-03
6.66000e+02,8.73427e-03
6.67000e+02,8.68576e-03
6.68000e+02,8.58705e-03
6.69000e+02,8.46655e-03
6.70000e+02,8.34259e-03
6.71000e+02,8.27333e-03
6.72000e+02,8.22304e-03
6.73000e+02,8.18281e-03
6.74000e+02,8.11212e-03
6.75000e+02,8.05271e-03
6.76000e+02,7.94921e-03
6.77000e+02,7.85044e-03
6.78000e+02,7.71120e-03
6.79000e+02,7.59588e-03
6.80000e+02,7.47007e-03
6.81000e+02,7.36915e-03
6.82000e+02,7.26992e-03
6.83000e+02,7.15410e-03
6.84000e+02,7.04191e-03
6.85000e+02,7.00336e-03
6.86000e+02,7.01403e-03
6.87000e+02,6.97545e-03
6.88000e+02,6.79906e-03
6.89000e+02,6.56887e-03
6.90000e+02,6.37727e-03
6.91000e+02,6.24259e-03
6.92000e+02,6.12608e-03
6.93000e+02,5.97103e-03
6.94000e+02,5.87369e-03
6.95000e+02,5.86258e-03
6.96000e+02,5.91511e-03
6.97000e+02,6.02689e-03
6.98000e+02,6.16128e-03
6.99000e+02,6.34661e-03
7.00000e+02,6.47427e-03
7.01000e+02,6.53841e-03
7.02000e+02,6.53620e-03
7.03000e+02,6.52492e-03
7.04000e+02,6.47863e-03
7.05000e+02,6.44027e-03
7.06000e+02,6.43421e-03
7.07000e+02,6.49984e-03
7.08000e+02,6.59118e-03
7.09000e+02,6.65082e-03
7.10000e+02,6.60048e-03
7.11000e+02,6.52629e-03
7.12000e+02,6.40898e-03
7.13000e+02,6.32272e-03
7.14000e+02,6.22966e-03
7.15000e+02,6.23258e-03
7.16000e+02,6.30075e-03
7.17000e+02,6.43206e-03
7.18000e+02,6.64355e-03
7.19000e+02,6.83673e-03
7.20000e+02,6.99853e-03
7.21000e+02,7.06757e-03
7.22000e+02,7.08197e-03
7.23000e+02,7.03567e-03
7.24000e+02,6.86305e-03
7.25000e+02,6.59986e-03
7.26000e+02,6.29942e-03
7.27000e+02,6.02999e-03
7.28000e+02,5.84779e-03
7.29000e+02,5.74364e-03
7.30000e+02,5.62885e-03
7.31000e+02,5.59621e-03
7.32000e+02,5.52784e-03
7.33000e+02,5.52448e-03
7.34000e+02,5.54619e-03
7.35000e+02,5.65053e-03
7.36000e+02,5.74344e-03
7.37000e+02,5.79252e-03
7.38000e+02,5.83114e-03
7.39000e+02,5.93797e-03
7.40000e+02,6.06865e-03
7.41000e+02,6.21424e-03
7.42000e+02,6.27694e-03
7.43000e+02,6.26081e-03
7.44000e+02,6.17525e-03
7.45000e+02,6.13870e-03
7.46000e+02,6.12951e-03
7.47000e+02,6.07912e-03
7.48000e+02,6.00472e-03
7.49000e+02,5.91654e-03
7.50000e+02,5.87072e-03
7.51000e+02,5.85586e-03
7.52000e+02,5.89615e-03
7.53000e+02,5.88528e-03
7.54000e+02,5.77816e-03
7.55000e+02,5.61500e-03
7.56000e+02,5.49906e-03
7.57000e+02,5.47199e-03
7.58000e+02,5.51204e-03
7.59000e+02,5.52631e-03
7.60000e+02,5.50960e-03
7.61000e+02,5.47491e-03
7.62000e+02,5.43520e-03
7.63000e+02,5.42111e-03
7.64000e+02,5.42111e-03
7.65000e+02,5.42111e-03
7.66000e+02,5.44913e-03
7.67000e+02,5.53376e-03
7.68000e+02,5.66850e-03
7.69000e+02,5.80062e-03
7.70000e+02,5.90149e-03
7.71000e+02,5.96572e-03
7.72000e+02,6.01336e-03
7.73000e+02,6.01336e-03
7.74000e+02,6.01336e-03
7.75000e+02,6.00584e-03
7.76000e+02,5.93957e-03
7.77000e+02,5.86044e-03
7.78000e+02,5.87201e-03
7.79000e+02,6.00794e-03
7.80000e+02,6.19576e-03
7.81000e+02,6.36462e-03
7.82000e+02,6.48754e-03
7.83000e+02,6.56221e-03
7.84000e+02,6.58399e-03
7.85000e+02,6.58028e-03
7.86000e+02,6.56609e-03
7.87000e+02,6.61779e-03
7.88000e+02,6.62164e-03
7.89000e+02,6.55103e-03
7.90000e+02,6.36571e-03
7.91000e+02,6.23804e-03
7.92000e+02,6.17390e-03
7.93000e+02,6.17390e-03
7.94000e+02,6.17390e-03
7.95000e+02,6.21381e-03
7.96000e+02,6.24216e-03
7.97000e+02,6.24259e-03
7.98000e+02,6.17852e-03
7.99000e+02,6.09396e-03
8.00000e+02,6.05206e-03
8.01000e+02,6.05206e-03
8.02000e+02,6.05206e-03
8.03000e+02,6.05206e-03
8.04000e+02,6.02773e-03
8.05000e+02,6.01890e-03
8.06000e+02,6.00747e-03
8.07000e+02,5.92415e-03
8.08000e+02,5.74642e-03
8.09000e+02,5.46672e-03
8.10000e+02,5.19828e-03
8.11000e+02,4.93968e-03
8.12000e+02,4.72648e-03
8.13000e+02,4.60798e-03
8.14000e+02,4.60116e-03
8.15000e+02,4.69967e-03
8.16000e+02,4.77117e-03
8.17000e+02,4.79302e-03
8.18000e+02,4.80365e-03
8.19000e+02,4.81513e-03
8.20000e+02,4.82745e-03
8.21000e+02,4.81437e-03
8.22000e+02,4.72716e-03
8.23000e+02,4.64878e-03
8.24000e+02,4.60336e-03
8.25000e+02,4.60664e-03
8.26000e+02,4.56287e-03
8.27000e+02,4.47324e-03
8.28000e+02,4.36767e-03
8.29000e+02,4.31691e-03
8.30000e+02,4.27573e-03
8.31000e+02,4.24233e-03
8.32000e+02,4.20085e-03
8.33000e+02,4.19991e-03
8.34000e+02,4.16541e-03
8.35000e+02,4.13426e-03
8.36000e+02,4.06657e-03
8.37000e+02,4.00979e-03
8.38000e+02,3.96580e-03
8.39000e+02,3.96094e-03
8.40000e+02,3.96094e-03
8.41000e+02,3.93068e-03
8.42000e+02,3.89376e-03
8.43000e+02,3.81660e-03
8.44000e+02,3.78772e-03
8.45000e+02,3.82391e-03
8.46000e+02,3.86667e-03
8.47000e+02,3.89291e-03
8.48000e+02,3.87467e-03
8.49000e+02,3.82048e-03
8.50000e+02,3.77167e-03
8.51000e+02,3.73879e-03
8.52000e+02,3.73723e-03
8.53000e+02,3.77956e-03
8.54000e+02,3.81854e-03
8.55000e+02,3.91986e-03
8.56000e+02,3.98966e-03
8.57000e+02,4.02199e-03
8.58000e+02,3.93735e-03
8.59000e+02,3.80669e-03
8.60000e+02,3.67457e-03
8.61000e+02,3.58141e-03
8.62000e+02,3.52207e-03
8.63000e+02,3.56617e-03
8.64000e+02,3.68002e-03
8.65000e+02,3.82111e-03
8.66000e+02,3.98707e-03
8.67000e+02,4.21274e-03
8.68000e+02,4.39045e-03
8.69000e+02,4.43090e-03
8.70000e+02,4.31644e-03
8.71000e+02,4.14465e-03
8.72000e+02,3.95601e-03
8.73000e+02,3.82166e-03
8.74000e+02,3.72987e-03
8.75000e+02,3.68647e-03
8.76000e+02,3.63801e-03
8.77000e+02,3.57449e-03
8.78000e+02,3.53247e-03
8.79000e+02,3.54250e-03
8.80000e+02,3.55006e-03
8.81000e+02,3.56564e-03
8.82000e+02,3.56564e-03
8.83000e+02,3.59260e-03
8.84000e+02,3.61692e-03
8.85000e+02,3.62103e-03
8.86000e+02,3.58113e-03
8.87000e+02,3.55341e-03
8.88000e+02,3.59291e-03
8.89000e+02,3.75714e-03
8.90000e+02,3.94220e-03
8.91000e+02,4.12623e-03
8.92000e+02,4.24183e-03
8.93000e+02,4.36024e-03
8.94000e+02,4.45534e-03
8.95000e+02,4.55668e-03
8.96000e+02,4.56204e-03
8.97000e+02,4.48182e-03
8.98000e+02,4.40583e-03
8.99000e+02,4.39552e-03
9.00000e+02,4.46873e-03
9.01000e+02,4.60091e-03
9.02000e+02,4.73273e-03
9.03000e+02,4.85999e-03
9.04000e+02,4.92194e-03
9.05000e+02,4.91186e-03
9.06000e+02,4.86330e-03
9.07000e+02,4.86049e-03
9.08000e+02,4.89407e-03
9.09000e+02,4.95888e-03
9.10000e+02,4.99418e-03
9.11000e+02,5.01363e-03
9.12000e+02,5.01363e-03
9.13000e+02,5.01363e-03
9.14000e+02,5.03624e-03
9.15000e+02,5.15543e-03
9.16000e+02,5.25861e-03
9.17000e+02,5.32242e-03
9.18000e+02,5.37731e-03
9.19000e+02,5.44673e-03
9.20000e+02,5.50915e-03
9.21000e+02,5.55492e-03
9.22000e+02,5.56766e-03
9.23000e+02,5.53893e-03
9.24000e+02,5.47302e-03
9.25000e+02,5.45767e-03
9.26000e+02,5.45767e-03
9.27000e+02,5.46071e-03
9.28000e+02,5.46044e-03
9.29000e+02,5.50160e-03
9.30000e+02,5.52821e-03
9.31000e+02,5.52821e-03
9.32000e+02,5.52821e-03
9.33000e+02,5.53416e-03
9.34000e+02,5.58375e-03
9.35000e+02,5.71234e-03
9.36000e+02,5.83227e-03
9.37000e+02,5.97098e-03
9.38000e+02,6.14595e-03
9.39000e+02,6.39259e-03
9.40000e+02,6.65752e-03
9.41000e+02,6.88270e-03
9.42000e+02,6.99236e-03
9.43000e+02,6.99191e-03
9.44000e+02,6.94958e-03
9.45000e+02,6.92819e-03
9.46000e+02,6.91344e-03
9.47000e+02,6.96412e-03
9.48000e+02,7.04439e-03
9.49000e+02,7.21733e-03
9.50000e+02,7.36544e-03
9.51000e+02,7.44646e-03
9.52000e+02,7.43875e-03
9.53000e+02,7.43386e-03
9.54000e+02,7.34544e-03
9.55000e+02,7.27179e-03
9.56000e+02,7.18697e-03
9.57000e+02,7.07202e-03
9.58000e+02,6.85924e-03
9.59000e+02,6.66902e-03
9.60000e+02,6.56375e-03
9.61000e+02,6.56270e-03
9.62000e+02,6.61296e-03
9.63000e+02,6.64073e-03
9.64000e+02,6.60924e-03
9.65000e+02,6.57947e-03
9.66000e+02,6.59056e-03
9.67000e+02,6.68055e-03
9.68000e+02,6.86734e-03
9.69000e+02,6.97819e-03
9.70000e+02,6.99871e-03
9.71000e+02,7.03127e-03
9.72000e+02,7.07456e-03
9.73000e+02,7.15128e-03
9.74000e+02,7.19660e-03
9.75000e+02,7.28921e-03
9.76000e+02,7.38354e-03
9.77000e+02,7.49942e-03
9.78000e+02,7.61542e-03
9.79000e+02,7.64291e-03
9.80000e+02,7.51940e-03
9.81000e+02,7.34639e-03
9.82000e+02,7.16357e-03
9.83000e+02,7.08937e-03
9.84000e+02,7.04939e-03
9.85000e+02,7.10638e-03
9.86000e+02,7.15649e-03
9.87000e+02,7.20391e-03
9.88000e+02,7.20391e-03
9.89000e+02,7.22759e-03
9.90000e+02,7.31750e-03
9.91000e+02,7.39681e-03
9.92000e+02,7.36377e-03
9.93000e+02,7.25184e-03
9.94000e+02,7.10418e-03
9.95000e+02,6.98650e-03
9.96000e+02,6.88713e-03
9.97000e+02,6.87476e-03
9.98000e+02,6.85626e-03
9.99000e+02,6.87135e-03
1.00000e+03,6.84904e-03
1.00100e+03,6.85995e-03
1.00200e+03,6.81755e-03
1.00300e+03,6.81755e-03
1.00400e+03,6.81755e-03
1.00500e+03,6.80244e-03
1.00600e+03,6.66031e-03
1.00700e+03,6.48456e-03
1.00800e+03,6.38060e-03
1.00900e+03,6.32018e-03
1.01000e+03,6.27685e-03
1.01100e+03,6.17031e-03
1.01200e+03,6.05223e-03
1.01300e+03,5.94221e-03
1.01400e+03,5.88064e-03
1.01500e+03,5.87735e-03
1.01600e+03,5.90462e-03
1.01700e+03,5.95173e-03
1.01800e+03,5.97355e-03
1.01900e+03,5.98931e-03
1.02000e+03,5.97919e-03
1.02100e+03,6.04564e-03
1.02200e+03,6.18550e-03
1.02300e+03,6.32938e-03
1.02400e+03,6.43328e-03
1.02500e+03,6.40785e-03
1.02600e+03,6.26874e-03
1.02700e+03,6.10679e-03
1.02800e+03,5.94080e-03
1.02900e+03,5.77879e-03
1.03000e+03,5.62584e-03
1.03100e+03,5.44941e-03
1.03200e+03,5.27951e-03
1.03300e+03,5.23065e-03
1.03400e+03,5.30523e-03
1.03500e+03,5.41836e-03
1.03600e+03,5.50333e-03
1.03700e+03,5.52754e-03
1.03800e+03,5.51488e-03
1.03900e+03,5.45593e-03
1.04000e+03,5.35808e-03
1.04100e+03,5.31529e-03
1.04200e+03,5.36637e-03
1.04300e+03,5.47699e-03
1.04400e+03,5.47699e-03
1.04500e+03,5.47366e-03
1.04600e+03,5.43429e-03
1.04700e+03,5.45682e-03
1.04800e+03,5.52517e-03
1.04900e+03,5.68027e-03
1.05000e+03,5.86114e-03
1.05100e+03,6.04741e-03
1.05200e+03,6.16625e-03
1.05300e+03,6.21542e-03
1.05400e+03,6.27317e-03
1.05500e+03,6.39379e-03
1.05600e+03,6.51310e-03
1.05700e+03,6.62554e-03
1.05800e+03,6.64680e-03
1.05900e+03,6.50464e-03
1.06000e+03,6.28012e-03
1.06100e+03,6.10196e-03
1.06200e+03,5.98044e-03
1.06300e+03,5.93520e-03
1.06400e+03,5.92887e-03
1.06500e+03,5.95749e-03
1.06600e+03,5.93794e-03
1.06700e+03,5.91802e-03
1.06800e+03,5.88044e-03
1.06900e+03,5.83505e-03
1.07000e+03,5.82330e-03
1.07100e+03,5.80333e-03
1.07200e+03,5.78451e-03
1.07300e+03,5.76556e-03
1.07400e+03,5.72416e-03
1.07500e+03,5.64573e-03
1.07600e+03,5.50406e-03
1.07700e+03,5.35906e-03
1.07800e+03,5.37372e-03
1.07900e+03,5.46244e-03
1.08000e+03,5.55808e-03
1.08100e+03,5.53962e-03
1.08200e+03,5.50247e-03
1.08300e+03,5.51246e-03
1.08400e+03,5.59498e-03
1.08500e+03,5.73139e-03
1.08600e+03,5.85745e-03
1.08700e+03,5.97973e-03
1.08800e+03,6.01851e-03
1.08900e+03,6.04485e-03
1.09000e+03,6.00080e-03
1.09100e+03,5.94743e-03
1.09200e+03,5.88974e-03
1.09300e+03,5.89050e-03
1.09400e+03,5.89050e-03
1.09500e+03,5.89050e-03
1.09600e+03,5.88300e-03
1.09700e+03,5.88300e-03
1.09800e+03,5.89530e-03
1.09900e+03,5.88244e-03
1.10000e+03,5.90112e-03
1.10100e+03,5.93763e-03
1.10200e+03,6.01286e-03
1.10300e+03,6.10447e-03
1.10400e+03,6.25155e-03
1.10500e+03,6.40668e-03
1.10600e+03,6.54338e-03
1.10700e+03,6.61967e-03
1.10800e+03,6.68377e-03
1.10900e+03,6.74304e-03
1.11000e+03,6.81208e-03
1.11100e+03,6.84787e-03
1.11200e+03,6.78395e-03
1.11300e+03,6.64669e-03
1.11400e+03,6.50281e-03
1.11500e+03,6.39308e-03
1.11600e+03,6.38629e-03
1.11700e+03,6.42480e-03
1.11800e+03,6.51810e-03
1.11900e+03,6.57928e-03
1.12000e+03,6.59597e-03
1.12100e+03,6.50228e-03
1.12200e+03,6.41379e-03
1.12300e+03,6.35850e-03
1.12400e+03,6.30280e-03
1.12500e+03,6.29198e-03
1.12600e+03,6.30181e-03
1.12700e+03,6.28811e-03
1.12800e+03,6.20892e-03
1.12900e+03,6.10109e-03
1.13000e+03,6.01942e-03
1.13100e+03,5.94434e-03
1.13200e+03,5.83506e-03
1.13300e+03,5.74499e-03
1.13400e+03,5.68738e-03
1.13500e+03,5.74087e-03
1.13600e+03,5.77707e-03
1.13700e+03,5.79982e-03
1.13800e+03,5.74440e-03
1.13900e+03,5.69348e-03
1.14000e+03,5.63991e-03
1.14100e+03,5.58680e-03
1.14200e+03,5.45391e-03
1.14300e+03,5.32656e-03
1.14400e+03,5.20632e-03
1.14500e+03,5.10680e-03
1.14600e+03,4.98617e-03
1.14700e+03,4.86946e-03
1.14800e+03,4.74492e-03
1.14900e+03,4.64725e-03
1.15000e+03,4.63601e-03
1.15100e+03,4.71819e-03
1.15200e+03,4.81565e-03
1.15300e+03,4.87151e-03
1.15400e+03,4.90863e-03
1.15500e+03,4.89673e-03
1.15600e+03,4.86312e-03
1.15700e+03,4.80314e-03
1.15800e+03,4.75606e-03
1.15900e+03,4.68451e-03
1.16000e+03,4.61326e-03
1.16100e+03,4.53560e-03
1.16200e+03,4.51327e-03
1.16300e+03,4.51327e-03
1.16400e+03,4.51327e-03
1.16500e+03,4.54191e-03
1.16600e+03,4.61325e-03
1.16700e+03,4.73795e-03
1.16800e+03,4.85582e-03
1.16900e+03,4.88865e-03
1.17000e+03,4.92971e-03
1.17100e+03,4.95102e-03
1.17200e+03,4.96913e-03
1.17300e+03,4.94713e-03
1.17400e+03,4.92988e-03
1.17500e+03,4.90863e-03
1.17600e+03,4.84044e-03
1.17700e+03,4.79653e-03
1.17800e+03,4.77341e-03
1.17900e+03,4.82087e-03
1.18000e+03,4.84595e-03
1.18100e+03,4.95541e-03
1.18200e+03,5.09245e-03
1.18300e+03,5.23315e-03
1.18400e+03,5.34133e-03
1.18500e+03,5.44797e-03
1.18600e+03,5.59402e-03
1.18700e+03,5.76236e-03
1.18800e+03,5.94208e-03
1.18900e+03,6.03922e-03
1.19000e+03,6.05724e-03
1.19100e+03,5.97349e-03
1.19200e+03,5.87664e-03
1.19300e+03,5.83004e-03
1.19400e+03,5.79690e-03
1.19500e+03,5.68284e-03
1.19600e+03,5.51389e-03
1.19700e+03,5.37995e-03
1.19800e+03,5.33719e-03
1.19900e+03,5.33936e-03
1.20000e+03,5.34302e-03
1.20100e+03,5.36520e-03
1.20200e+03,5.38419e-03
1.20300e+03,5.40645e-03
1.20400e+03,5.40385e-03
1.20500e+03,5.42158e-03
1.20600e+03,5.49328e-03
1.20700e+03,5.53525e-03
1.20800e+03,5.50317e-03
1.20900e+03,5.40987e-03
1.21000e+03,5.33443e-03
1.21100e+03,5.27924e-03
1.21200e+03,5.27924e-03
1.21300e+03,5.27924e-03
1.21400e+03,5.28258e-03
1.21500e+03,5.26713e-03
1.21600e+03,5.18882e-03
1.21700e+03,5.06586e-03
1.21800e+03,4.97700e-03
1.21900e+03,4.98734e-03
1.22000e+03,5.08380e-03
1.22100e+03,5.17962e-03
1.22200e+03,5.24690e-03
1.22300e+03,5.26147e-03
1.22400e+03,5.21945e-03
1.22500e+03,5.16644e-03
1.22600e+03,5.11295e-03
1.22700e+03,5.09264e-03
1.22800e+03,5.06907e-03
1.22900e+03,5.05552e-03
1.23000e+03,5.00784e-03
1.23100e+03,4.98005e-03
1.23200e+03,4.96465e-03
1.23300e+03,5.04050e-03
1.23400e+03,5.10782e-03
1.23500e+03,5.18372e-03
1.23600e+03,5.22764e-03
1.23700e+03,5.28119e-03
1.23800e+03,5.32714e-03
1.23900e+03,5.37768e-03
1.24000e+03,5.39361e-03
1.24100e+03,5.39452e-03
1.24200e+03,5.38968e-03
1.24300e+03,5.41304e-03
1.24400e+03,5.46345e-03
1.24500e+03,5.49227e-03
1.24600e+03,5.52104e-03
1.24700e+03,5.56756e-03
1.24800e+03,5.62842e-03
1.24900e+03,5.67633e-03
1.25000e+03,5.68508e-03
1.25100e+03,5.68513e-03
1.25200e+03,5.68513e-03
1.25300e+03,5.70817e-03
1.25400e+03,5.75175e-03
1.25500e+03,5.79674e-03
1.25600e+03,5.76810e-03
1.25700e+03,5.69676e-03
1.25800e+03,5.56658e-03
1.25900e+03,5.47192e-03
1.26000e+03,5.38903e-03
1.26100e+03,5.25925e-03
1.26200e+03,5.11862e-03
1.26300e+03,5.01895e-03
1.26400e+03,4.99686e-03
1.26500e+03,5.02907e-03
1.26600e+03,5.05425e-03
1.26700e+03,5.09707e-03
1.26800e+03,5.12988e-03
1.26900e+03,5.14262e-03
1.27000e+03,5.12059e-03
1.27100e+03,5.07499e-03
1.27200e+03,4.97386e-03
1.27300e+03,4.84391e-03
1.27400e+03,4.71272e-03
1.27500e+03,4.63865e-03
1.27600e+03,4.56325e-03
1.27700e+03,4.44811e-03
1.27800e+03,4.30186e-03
1.27900e+03,4.18519e-03
1.28000e+03,4.18216e-03
1.28100e+03,4.27117e-03
1.28200e+03,4.39759e-03
1.28300e+03,4.47795e-03
1.28400e+03,4.45833e-03
1.28500e+03,4.39985e-03
1.28600e+03,4.41675e-03
1.28700e+03,4.51582e-03
1.28800e+03,4.61498e-03
1.28900e+03,4.64339e-03
1.29000e+03,4.63322e-03
1.29100e+03,4.63600e-03
1.29200e+03,4.57762e-03
1.29300e+03,4.49181e-03
1.29400e+03,4.44041e-03
1.29500e+03,4.44041e-03
1.29600e+03,4.42268e-03
1.29700e+03,4.34923e-03
1.29800e+03,4.29230e-03
1.29900e+03,4.28587e-03
1.30000e+03,4.28587e-03
1.30100e+03,4.28465e-03
1.30200e+03,4.28394e-03
1.30300e+03,4.28394e-03
1.30400e+03,4.29153e-03
1.30500e+03,4.35839e-03
1.30600e+03,4.45520e-03
1.30700e+03,4.56556e-03
1.30800e+03,4.64726e-03
1.30900e+03,4.68225e-03
1.31000e+03,4.66765e-03
1.31100e+03,4.59774e-03
1.31200e+03,4.54396e-03
1.31300e+03,4.50932e-03
1.31400e+03,4.50739e-03
1.31500e+03,4.51165e-03
1.31600e+03,4.52108e-03
1.31700e+03,4.53553e-03
1.31800e+03,4.51963e-03
1.31900e+03,4.51963e-03
1.32000e+03,4.50981e-03
1.32100e+03,4.48903e-03
1.32200e+03,4.40834e-03
1.32300e+03,4.30999e-03
1.32400e+03,4.17207e-03
1.32500e+03,4.07763e-03
1.32600e+03,4.00174e-03
1.32700e+03,3.95781e-03
1.32800e+03,3.91096e-03
1.32900e+03,3.86242e-03
1.33000e+03,3.83924e-03
1.33100e+03,3.91165e-03
1.33200e+03,4.02140e-03
1.33300e+03,4.07290e-03
1.33400e+03,4.03199e-03
1.33500e+03,3.99084e-03
1.33600e+03,3.98811e-03
1.33700e+03,3.97363e-03
1.33800e+03,3.94542e-03
1.33900e+03,3.93174e-03
1.34000e+03,3.92307e-03
1.34100e+03,3.94741e-03
1.34200e+03,3.97347e-03
1.34300e+03,4.05344e-03
1.34400e+03,4.12291e-03
1.34500e+03,4.14734e-03
1.34600e+03,4.10235e-03
1.34700e+03,4.10235e-03
1.34800e+03,4.10235e-03
1.34900e+03,4.10672e-03
1.35000e+03,4.09773e-03
1.35100e+03,4.12856e-03
1.35200e+03,4.18612e-03
1.35300e+03,4.22898e-03
1.35400e+03,4.26551e-03
1.35500e+03,4.26141e-03
1.35600e+03,4.23361e-03
1.35700e+03,4.18818e-03
1.35800e+03,4.13891e-03
1.35900e+03,4.07121e-03
1.36000e+03,4.02300e-03
1.36100e+03,3.97356e-03
1.36200e+03,3.98165e-03
1.36300e+03,3.98926e-03
1.36400e+03,3.98616e-03
1.36500e+03,3.97665e-03
1.36600e+03,3.94178e-03
1.36700e+03,3.91053e-03
1.36800e+03,3.87963e-03
1.36900e+03,3.85754e-03
1.37000e+03,3.83051e-03
1.37100e+03,3.75534e-03
1.37200e+03,3.62095e-03
1.37300e+03,3.49544e-03
1.37400e+03,3.41310e-03
1.37500e+03,3.41129e-03
1.37600e+03,3.41129e-03
1.37700e+03,3.36304e-03
1.37800e+03,3.26397e-03
1.37900e+03,3.14087e-03
1.38000e+03,3.04260e-03
1.38100e+03,2.93937e-03
1.38200e+03,2.84881e-03
1.38300e+03,2.80574e-03
1.38400e+03,2.81458e-03
1.38500e+03,2.81458e-03
1.38600e+03,2.82633e-03
1.38700e+03,2.82633e-03
1.38800e+03,2.82633e-03
1.38900e+03,2.82390e-03
1.39000e+03,2.82390e-03
1.39100e+03,2.82390e-03
1.39200e+03,2.82390e-03
1.39300e+03,2.82390e-03
1.39400e+03,2.82390e-03
1.39500e+03,2.81632e-03
1.39600e+03,2.74612e-03
1.39700e+03,2.63822e-03
1.39800e+03,2.52786e-03
1.39900e+03,2.44616e-03
1.40000e+03,2.41116e-03
1.40100e+03,2.38385e-03
1.40200e+03,2.35730e-03
1.40300e+03,2.31525e-03
1.40400e+03,2.28261e-03
1.40500e+03,2.26985e-03
1.40600e+03,2.26559e-03
1.40700e+03,2.25617e-03
1.40800e+03,2.24171e-03
1.40900e+03,2.24171e-03
1.41000e+03,2.24171e-03
1.41100e+03,2.24171e-03
1.41200e+03,2.24171e-03
1.41300e+03,2.23579e-03
1.41400e+03,2.22178e-03
1.41500e+03,2.21658e-03
1.41600e+03,2.21658e-03
1.41700e+03,2.21658e-03
1.41800e+03,2.21658e-03
1.41900e+03,2.20988e-03
1.42000e+03,2.20988e-03
1.42100e+03,2.18253e-03
1.42200e+03,2.08061e-03
1.42300e+03,1.92028e-03
1.42400e+03,1.78773e-03
1.42500e+03,1.70783e-03
1.42600e+03,1.64270e-03
1.42700e+03,1.56586e-03
1.42800e+03,1.49308e-03
1.42900e+03,1.40749e-03
1.43000e+03,1.32290e-03
1.43100e+03,1.25222e-03
1.43200e+03,1.21237e-03
1.43300e+03,1.18627e-03
1.43400e+03,1.10630e-03
1.43500e+03,1.01379e-03
1.43600e+03,9.45785e-04
1.43700e+03,9.45785e-04
1.43800e+03,9.45785e-04
1.43900e+03,9.45785e-04