Pixels #,Intensity (a.u.)
0.00000e+00,9.91234e-03
1.00000e+00,9.84567e-03
2.00000e+00,9.79391e-03
3.00000e+00,9.71539e-03
4.00000e+00,9.66709e-03
5.00000e+00,9.61191e-03
6.00000e+00,9.56229e-03
7.00000e+00,9.48885e-03
8.00000e+00,9.43458e-03
9.00000e+00,9.38663e-03
1.00000e+01,9.34570e-03
1.10000e+01,9.27686e-03
1.20000e+01,9.24758e-03
1.30000e+01,9.26567e-03
1.40000e+01,9.34468e-03
1.50000e+01,9.39883e-03
1.60000e+01,9.40673e-03
1.70000e+01,9.34185e-03
1.80000e+01,9.22330e-03
1.90000e+01,9.08020e-03
2.00000e+01,8.93735e-03
2.10000e+01,8.80204e-03
2.20000e+01,8.65894e-03
2.30000e+01,8.51584e-03
2.40000e+01,8.37618e-03
2.50000e+01,8.26143e-03
2.60000e+01,8.17482e-03
2.70000e+01,8.10820e-03
2.80000e+01,8.04789e-03
2.90000e+01,7.99467e-03
3.00000e+01,7.96044e-03
3.10000e+01,7.92691e-03
3.20000e+01,7.87772e-03
3.30000e+01,7.76362e-03
3.40000e+01,7.62052e-03
3.50000e+01,7.47913e-03
3.60000e+01,7.36958e-03
3.70000e+01,7.28380e-03
3.80000e+01,7.20464e-03
3.90000e+01,7.15480e-03
4.00000e+01,7.09529e-03
4.10000e+01,7.03076e-03
4.20000e+01,6.94608e-03
4.30000e+01,6.85566e-03
4.40000e+01,6.73824e-03
4.50000e+01,6.60505e-03
4.60000e+01,6.48789e-03
4.70000e+01,6.40646e-03
4.80000e+01,6.36601e-03
4.90000e+01,6.33012e-03
5.00000e+01,6.27384e-03
5.10000e+01,6.21245e-03
5.20000e+01,6.15693e-03
5.30000e+01,6.15281e-03
5.40000e+01,6.14393e-03
5.50000e+01,6.10929e-03
5.60000e+01,6.05889e-03
5.70000e+01,6.03006e-03
5.80000e+01,6.07597e-03
5.90000e+01,6.13537e-03
6.00000e+01,6.19073e-03
6.10000e+01,6.19989e-03
6.20000e+01,6.18922e-03
6.30000e+01,6.17406e-03
6.40000e+01,6.17527e-03
6.50000e+01,6.20512e-03
6.60000e+01,6.22975e-03
6.70000e+01,6.22131e-03
6.80000e+01,6.20743e-03
6.90000e+01,6.20466e-03
7.00000e+01,6.21383e-03
7.10000e+01,6.22814e-03
7.20000e+01,6.20530e-03
7.30000e+01,6.12426e-03
7.40000e+01,6.01240e-03
7.50000e+01,5.96499e-03
7.60000e+01,5.96938e-03
7.70000e+01,6.01345e-03
7.80000e+01,6.03351e-03
7.90000e+01,6.06636e-03
8.00000e+01,6.09487e-03
8.10000e+01,6.07812e-03
8.20000e+01,5.95921e-03
8.30000e+01,5.77313e-03
8.40000e+01,5.65213e-03
8.50000e+01,5.61081e-03
8.60000e+01,5.60012e-03
8.70000e+01,5.62083e-03
8.80000e+01,5.68636e-03
8.90000e+01,5.82460e-03
9.00000e+01,5.94888e-03
9.10000e+01,5.99213e-03
9.20000e+01,5.95747e-03
9.30000e+01,5.87893e-03
9.40000e+01,5.83941e-03
9.50000e+01,5.76132e-03
9.60000e+01,5.68236e-03
9.70000e+01,5.60109e-03
9.80000e+01,5.60004e-03
9.90000e+01,5.61706e-03
1.00000e+02,5.65585e-03
1.01000e+02,5.67092e-03
1.02000e+02,5.69697e-03
1.03000e+02,5.64160e-03
1.04000e+02,5.54441e-03
1.05000e+02,5.39551e-03
1.06000e+02,5.30428e-03
1.07000e+02,5.25046e-03
1.08000e+02,5.25854e-03
1.09000e+02,5.28375e-03
1.10000e+02,5.30341e-03
1.11000e+02,5.30317e-03
1.12000e+02,5.31063e-03
1.13000e+02,5.36688e-03
1.14000e+02,5.48898e-03
1.15000e+02,5.60554e-03
1.16000e+02,5.71552e-03
1.17000e+02,5.80399e-03
1.18000e+02,5.86723e-03
1.19000e+02,5.88034e-03
1.20000e+02,5.85456e-03
1.21000e+02,5.82765e-03
1.22000e+02,5.83527e-03
1.23000e+02,5.88505e-03
1.24000e+02,5.99224e-03
1.25000e+02,6.10612e-03
1.26000e+02,6.18712e-03
1.27000e+02,6.23722e-03
1.28000e+02,6.28036e-03
1.29000e+02,6.34773e-03
1.30000e+02,6.37954e-03
1.31000e+02,6.39024e-03
1.32000e+02,6.33628e-03
1.33000e+02,6.28687e-03
1.34000e+02,6.24448e-03
1.35000e+02,6.29206e-03
1.36000e+02,6.36496e-03
1.37000e+02,6.43117e-03
1.38000e+02,6.43616e-03
1.39000e+02,6.39286e-03
1.40000e+02,6.36835e-03
1.41000e+02,6.33528e-03
1.42000e+02,6.31479e-03
1.43000e+02,6.26353e-03
1.44000e+02,6.23726e-03
1.45000e+02,6.24645e-03
1.46000e+02,6.31383e-03
1.47000e+02,6.37482e-03
1.48000e+02,6.41263e-03
1.49000e+02,6.36108e-03
1.50000e+02,6.28286e-03
1.51000e+02,6.17444e-03
1.52000e+02,6.09159e-03
1.53000e+02,6.03067e-03
1.54000e+02,6.00810e-03
1.55000e+02,6.02915e-03
1.56000e+02,6.03907e-03
1.57000e+02,6.09512e-03
1.58000e+02,6.20417e-03
1.59000e+02,6.37849e-03
1.60000e+02,6.56970e-03
1.61000e+02,6.71449e-03
1.62000e+02,6.79955e-03
1.63000e+02,6.84590e-03
1.64000e+02,6.92058e-03
1.65000e+02,7.00432e-03
1.66000e+02,7.04183e-03
1.67000e+02,7.03123e-03
1.68000e+02,7.04839e-03
1.69000e+02,7.14734e-03
1.70000e+02,7.32111e-03
1.71000e+02,7.46396e-03
1.72000e+02,7.60907e-03
1.73000e+02,7.72315e-03
1.74000e+02,7.84546e-03
1.75000e+02,7.90952e-03
1.76000e+02,7.94007e-03
1.77000e+02,7.94048e-03
1.78000e+02,7.89315e-03
1.79000e+02,7.78123e-03
1.80000e+02,7.63433e-03
1.81000e+02,7.50544e-03
1.82000e+02,7.46607e-03
1.83000e+02,7.48490e-03
1.84000e+02,7.54207e-03
1.85000e+02,7.59871e-03
1.86000e+02,7.69917e-03
1.87000e+02,7.83455e-03
1.88000e+02,7.94490e-03
1.89000e+02,7.99319e-03
1.90000e+02,7.99069e-03
1.91000e+02,7.95416e-03
1.92000e+02,7.91447e-03
1.93000e+02,7.90212e-03
1.94000e+02,7.96806e-03
1.95000e+02,8.02484e-03
1.96000e+02,8.03982e-03
1.97000e+02,7.95194e-03
1.98000e+02,7.85621e-03
1.99000e+02,7.76991e-03
2.00000e+02,7.72704e-03
2.01000e+02,7.72401e-03
2.02000e+02,7.78023e-03
2.03000e+02,7.85788e-03
2.04000e+02,7.88947e-03
2.05000e+02,7.84534e-03
2.06000e+02,7.79903e-03
2.07000e+02,7.75165e-03
2.08000e+02,7.73970e-03
2.09000e+02,7.77409e-03
2.10000e+02,7.85198e-03
2.11000e+02,7.92621e-03
2.12000e+02,7.93005e-03
2.13000e+02,7.90635e-03
2.14000e+02,7.86482e-03
2.15000e+02,7.83557e-03
2.16000e+02,7.81147e-03
2.17000e+02,7.82517e-03
2.18000e+02,7.84373e-03
2.19000e+02,7.85901e-03
2.20000e+02,7.84191e-03
2.21000e+02,7.82857e-03
2.22000e+02,7.83886e-03
2.23000e+02,7.89090e-03
2.24000e+02,7.94892e-03
2.25000e+02,8.01507e-03
2.26000e+02,8.02114e-03
2.27000e+02,8.02544e-03
2.28000e+02,7.99941e-03
2.29000e+02,8.06045e-03
2.30000e+02,8.15849e-03
2.31000e+02,8.28179e-03
2.32000e+02,8.37582e-03
2.33000e+02,8.43734e-03
2.34000e+02,8.48776e-03
2.35000e+02,8.47847e-03
2.36000e+02,8.42333e-03
2.37000e+02,8.34123e-03
2.38000e+02,8.29302e-03
2.39000e+02,8.29016e-03
2.40000e+02,8.31724e-03
2.41000e+02,8.33479e-03
2.42000e+02,8.32275e-03
2.43000e+02,8.31654e-03
2.44000e+02,8.30732e-03
2.45000e+02,8.32041e-03
2.46000e+02,8.27578e-03
2.47000e+02,8.19176e-03
2.48000e+02,8.04953e-03
2.49000e+02,7.91310e-03
2.50000e+02,7.79514e-03
2.51000e+02,7.69567e-03
2.52000e+02,7.62433e-03
2.53000e+02,7.57306e-03
2.54000e+02,7.54108e-03
2.55000e+02,7.46641e-03
2.56000e+02,7.38290e-03
2.57000e+02,7.28886e-03
2.58000e+02,7.27074e-03
2.59000e+02,7.27024e-03
2.60000e+02,7.27328e-03
2.61000e+02,7.23292e-03
2.62000e+02,7.20792e-03
2.63000e+02,7.21508e-03
2.64000e+02,7.23711e-03
2.65000e+02,7.23669e-03
2.66000e+02,7.23568e-03
2.67000e+02,7.22898e-03
2.68000e+02,7.24445e-03
2.69000e+02,7.27192e-03
2.70000e+02,7.35037e-03
2.71000e+02,7.42267e-03
2.72000e+02,7.49604e-03
2.73000e+02,7.54801e-03
2.74000e+02,7.64653e-03
2.75000e+02,7.74219e-03
2.76000e+02,7.80743e-03
2.77000e+02,7.79312e-03
2.78000e+02,7.74147e-03
2.79000e+02,7.71050e-03
2.80000e+02,7.71448e-03
2.81000e+02,7.74418e-03
2.82000e+02,7.79457e-03
2.83000e+02,7.86890e-03
2.84000e+02,7.95716e-03
2.85000e+02,8.01836e-03
2.86000e+02,8.09237e-03
2.87000e+02,8.17221e-03
2.88000e+02,8.28744e-03
2.89000e+02,8.38650e-03
2.90000e+02,8.47941e-03
2.91000e+02,8.57441e-03
2.92000e+02,8.66799e-03
2.93000e+02,8.75885e-03
2.94000e+02,8.84395e-03
2.95000e+02,8.95462e-03
2.96000e+02,9.04355e-03
2.97000e+02,9.09518e-03
2.98000e+02,9.08178e-03
2.99000e+02,8.96859e-03
3.00000e+02,8.80021e-03
3.01000e+02,8.62643e-03
3.02000e+02,8.51659e-03
3.03000e+02,8.46098e-03
3.04000e+02,8.37447e-03
3.05000e+02,8.27231e-03
3.06000e+02,8.16537e-03
3.07000e+02,8.09247e-03
3.08000e+02,8.00854e-03
3.09000e+02,7.96691e-03
3.10000e+02,7.88703e-03
3.11000e+02,7.78459e-03
3.12000e+02,7.67467e-03
3.13000e+02,7.58435e-03
3.14000e+02,7.55801e-03
3.15000e+02,7.57658e-03
3.16000e+02,7.57329e-03
3.17000e+02,7.55436e-03
3.18000e+02,7.48307e-03
3.19000e+02,7.44023e-03
3.20000e+02,7.33614e-03
3.21000e+02,7.23806e-03
3.22000e+02,7.15170e-03
3.23000e+02,7.18801e-03
3.24000e+02,7.24674e-03
3.25000e+02,7.31770e-03
3.26000e+02,7.37998e-03
3.27000e+02,7.46147e-03
3.28000e+02,7.53595e-03
3.29000e+02,7.55428e-03
3.30000e+02,7.51409e-03
3.31000e+02,7.46054e-03
3.32000e+02,7.43738e-03
3.33000e+02,7.47494e-03
3.34000e+02,7.50134e-03
3.35000e+02,7.48287e-03
3.36000e+02,7.42261e-03
3.37000e+02,7.41837e-03
3.38000e+02,7.52267e-03
3.39000e+02,7.68946e-03
3.40000e+02,7.84464e-03
3.41000e+02,7.90327e-03
3.42000e+02,7.89139e-03
3.43000e+02,7.85240e-03
3.44000e+02,7.86472e-03
3.45000e+02,7.90532e-03
3.46000e+02,7.98528e-03
3.47000e+02,8.01498e-03
3.48000e+02,8.02030e-03
3.49000e+02,7.94485e-03
3.50000e+02,7.81436e-03
3.51000e+02,7.65047e-03
3.52000e+02,7.50260e-03
3.53000e+02,7.39791e-03
3.54000e+02,7.30712e-03
3.55000e+02,7.21022e-03
3.56000e+02,7.09941e-03
3.57000e+02,6.97086e-03
3.58000e+02,6.87903e-03
3.59000e+02,6.81524e-03
3.60000e+02,6.80201e-03
3.61000e+02,6.74263e-03
3.62000e+02,6.64011e-03
3.63000e+02,6.52724e-03
3.64000e+02,6.42380e-03
3.65000e+02,6.34720e-03
3.66000e+02,6.28231e-03
3.67000e+02,6.24466e-03
3.68000e+02,6.24700e-03
3.69000e+02,6.26427e-03
3.70000e+02,6.30464e-03
3.71000e+02,6.32931e-03
3.72000e+02,6.27022e-03
3.73000e+02,6.13279e-03
3.74000e+02,5.98090e-03
3.75000e+02,5.86973e-03
3.76000e+02,5.83210e-03
3.77000e+02,5.79142e-03
3.78000e+02,5.72953e-03
3.79000e+02,5.61853e-03
3.80000e+02,5.51802e-03
3.81000e+02,5.42512e-03
3.82000e+02,5.32871e-03
3.83000e+02,5.25964e-03
3.84000e+02,5.15907e-03
3.85000e+02,5.05978e-03
3.86000e+02,4.96208e-03
3.87000e+02,4.95644e-03
3.88000e+02,4.99181e-03
3.89000e+02,5.04041e-03
3.90000e+02,5.10693e-03
3.91000e+02,5.18365e-03
3.92000e+02,5.25657e-03
3.93000e+02,5.29187e-03
3.94000e+02,5.30721e-03
3.95000e+02,5.34071e-03
3.96000e+02,5.38346e-03
3.97000e+02,5.42482e-03
3.98000e+02,5.46048e-03
3.99000e+02,5.50664e-03
4.00000e+02,5.51729e-03
4.01000e+02,5.52576e-03
4.02000e+02,5.55507e-03
4.03000e+02,5.55921e-03
4.04000e+02,5.57781e-03
4.05000e+02,5.53043e-03
4.06000e+02,5.48602e-03
4.07000e+02,5.45659e-03
4.08000e+02,5.46759e-03
4.09000e+02,5.49197e-03
4.10000e+02,5.46869e-03
4.11000e+02,5.46869e-03
4.12000e+02,5.45764e-03
4.13000e+02,5.43976e-03
4.14000e+02,5.36629e-03
4.15000e+02,5.33232e-03
4.16000e+02,5.30346e-03
4.17000e+02,5.29073e-03
4.18000e+02,5.28249e-03
4.19000e+02,5.31956e-03
4.20000e+02,5.39303e-03
4.21000e+02,5.45782e-03
4.22000e+02,5.51334e-03
4.23000e+02,5.56545e-03
4.24000e+02,5.59705e-03
4.25000e+02,5.59235e-03
4.26000e+02,5.62186e-03
4.27000e+02,5.71784e-03
4.28000e+02,5.82796e-03
4.29000e+02,5.88730e-03
4.30000e+02,5.88075e-03
4.31000e+02,5.83183e-03
4.32000e+02,5.77685e-03
4.33000e+02,5.72794e-03
4.34000e+02,5.72638e-03
4.35000e+02,5.70702e-03
4.36000e+02,5.64757e-03
4.37000e+02,5.56761e-03
4.38000e+02,5.53768e-03
4.39000e+02,5.54466e-03
4.40000e+02,5.58929e-03
4.41000e+02,5.70262e-03
4.42000e+02,5.83535e-03
4.43000e+02,5.94760e-03
4.44000e+02,5.99170e-03
4.45000e+02,5.93688e-03
4.46000e+02,5.89766e-03
4.47000e+02,5.88076e-03
4.48000e+02,5.95092e-03
4.49000e+02,6.08158e-03
4.50000e+02,6.21767e-03
4.51000e+02,6.29701e-03
4.52000e+02,6.35837e-03
4.53000e+02,6.42104e-03
4.54000e+02,6.50382e-03
4.55000e+02,6.59971e-03
4.56000e+02,6.68576e-03
4.57000e+02,6.75039e-03
4.58000e+02,6.82557e-03
4.59000e+02,6.89432e-03
4.60000e+02,6.95938e-03
4.61000e+02,6.94953e-03
4.62000e+02,6.90921e-03
4.63000e+02,6.93282e-03
4.64000e+02,7.03643e-03
4.65000e+02,7.15106e-03
4.66000e+02,7.19890e-03
4.67000e+02,7.18244e-03
4.68000e+02,7.15932e-03
4.69000e+02,7.14903e-03
4.70000e+02,7.12666e-03
4.71000e+02,7.12666e-03
4.72000e+02,7.12666e-03
4.73000e+02,7.16713e-03
4.74000e+02,7.21657e-03
4.75000e+02,7.31811e-03
4.76000e+02,7.32064e-03
4.77000e+02,7.28404e-03
4.78000e+02,7.15487e-03
4.79000e+02,7.05754e-03
4.80000e+02,7.01744e-03
4.81000e+02,7.04338e-03
4.82000e+02,7.08840e-03
4.83000e+02,7.13960e-03
4.84000e+02,7.20484e-03
4.85000e+02,7.31263e-03
4.86000e+02,7.44235e-03
4.87000e+02,7.56503e-03
4.88000e+02,7.62523e-03
4.89000e+02,7.61263e-03
4.90000e+02,7.56424e-03
4.91000e+02,7.49595e-03
4.92000e+02,7.47412e-03
4.93000e+02,7.44488e-03
4.94000e+02,7.48508e-03
4.95000e+02,7.52090e-03
4.96000e+02,7.60138e-03
4.97000e+02,7.63997e-03
4.98000e+02,7.70581e-03
4.99000e+02,7.78580e-03
5.00000e+02,7.89203e-03
5.01000e+02,7.95009e-03
5.02000e+02,7.99655e-03
5.03000e+02,8.04087e-03
5.04000e+02,8.12152e-03
5.05000e+02,8.13995e-03
5.06000e+02,8.14138e-03
5.07000e+02,8.19080e-03
5.08000e+02,8.32489e-03
5.09000e+02,8.51130e-03
5.10000e+02,8.66266e-03
5.11000e+02,8.78726e-03
5.12000e+02,8.89227e-03
5.13000e+02,8.97192e-03
5.14000e+02,8.99595e-03
5.15000e+02,8.97609e-03
5.16000e+02,8.96292e-03
5.17000e+02,8.93341e-03
5.18000e+02,8.86518e-03
5.19000e+02,8.78246e-03
5.20000e+02,8.74723e-03
5.21000e+02,8.73509e-03
5.22000e+02,8.74196e-03
5.23000e+02,8.73065e-03
5.24000e+02,8.71754e-03
5.25000e+02,8.67546e-03
5.26000e+02,8.64506e-03
5.27000e+02,8.65842e-03
5.28000e+02,8.73072e-03
5.29000e+02,8.75987e-03
5.30000e+02,8.77463e-03
5.31000e+02,8.81064e-03
5.32000e+02,8.85731e-03
5.33000e+02,8.92762e-03
5.34000e+02,9.00968e-03
5.35000e+02,9.14473e-03
5.36000e+02,9.42034e-03
5.37000e+02,9.75140e-03
5.38000e+02,1.01012e-02
5.39000e+02,1.03091e-02
5.40000e+02,1.03665e-02
5.41000e+02,1.02899e-02
5.42000e+02,1.01952e-02
5.43000e+02,1.01097e-02
5.44000e+02,1.01022e-02
5.45000e+02,1.01139e-02
5.46000e+02,1.01177e-02
5.47000e+02,1.01061e-02
5.48000e+02,1.00573e-02
5.49000e+02,9.93694e-03
5.50000e+02,9.76299e-03
5.51000e+02,9.58798e-03
5.52000e+02,9.46586e-03
5.53000e+02,9.36431e-03
5.54000e+02,9.31925e-03
5.55000e+02,9.34893e-03
5.56000e+02,9.48777e-03
5.57000e+02,9.64224e-03
5.58000e+02,9.75801e-03
5.59000e+02,9.82206e-03
5.60000e+02,9.87670e-03
5.61000e+02,9.98475e-03
5.62000e+02,1.01641e-02
5.63000e+02,1.03962e-02
5.64000e+02,1.06224e-02
5.65000e+02,1.07114e-02
5.66000e+02,1.06971e-02
5.67000e+02,1.06966e-02
5.68000e+02,1.07053e-02
5.69000e+02,1.07324e-02
5.70000e+02,1.06999e-02
5.71000e+02,1.06508e-02
5.72000e+02,1.05575e-02
5.73000e+02,1.04725e-02
5.74000e+02,1.03644e-02
5.75000e+02,1.02509e-02
5.76000e+02,1.01744e-02
5.77000e+02,1.01671e-02
5.78000e+02,1.02189e-02
5.79000e+02,1.02837e-02
5.80000e+02,1.03530e-02
5.81000e+02,1.04475e-02
5.82000e+02,1.05879e-02
5.83000e+02,1.06940e-02
5.84000e+02,1.07542e-02
5.85000e+02,1.07212e-02
5.86000e+02,1.06640e-02
5.87000e+02,1.06324e-02
5.88000e+02,1.06450e-02
5.89000e+02,1.06911e-02
5.90000e+02,1.07255e-02
5.91000e+02,1.07590e-02
5.92000e+02,1.08693e-02
5.93000e+02,1.09876e-02
5.94000e+02,1.11072e-02
5.95000e+02,1.11282e-02
5.96000e+02,1.11380e-02
5.97000e+02,1.11209e-02
5.98000e+02,1.10819e-02
5.99000e+02,1.09523e-02
6.00000e+02,1.07686e-02
6.01000e+02,1.05937e-02
6.02000e+02,1.05119e-02
6.03000e+02,1.04801e-02
6.04000e+02,1.04759e-02
6.05000e+02,1.04876e-02
6.06000e+02,1.05262e-02
6.07000e+02,1.05572e-02
6.08000e+02,1.05572e-02
6.09000e+02,1.05294e-02
6.10000e+02,1.04426e-02
6.11000e+02,1.02870e-02
6.12000e+02,1.01771e-02
6.13000e+02,1.01425e-02
6.14000e+02,1.01609e-02
6.15000e+02,1.01927e-02
6.16000e+02,1.01927e-02
6.17000e+02,1.01721e-02
6.18000e+02,1.01635e-02
6.19000e+02,1.01853e-02
6.20000e+02,1.02587e-02
6.21000e+02,1.03132e-02
6.22000e+02,1.02943e-02
6.23000e+02,1.01988e-02
6.24000e+02,1.00281e-02
6.25000e+02,9.82622e-03
6.26000e+02,9.61008e-03
6.27000e+02,9.34962e-03
6.28000e+02,9.07264e-03
6.29000e+02,8.78683e-03
6.30000e+02,8.58306e-03
6.31000e+02,8.42349e-03
6.32000e+02,8.39885e-03
6.33000e+02,8.45063e-03
6.34000e+02,8.66352e-03
6.35000e+02,8.81584e-03
6.36000e+02,8.88861e-03
6.37000e+02,8.82814e-03
6.38000e+02,8.77043e-03
6.39000e+02,8.85265e-03
6.40000e+02,9.02566e-03
6.41000e+02,9.24438e-03
6.42000e+02,9.35450e-03
6.43000e+02,9.39825e-03
6.44000e+02,9.39455e-03
6.45000e+02,9.34205e-03
6.46000e+02,9.23193e-03
6.47000e+02,9.04910e-03
6.48000e+02,8.88121e-03
6.49000e+02,8.71394e-03
6.50000e+02,8.58554e-03
6.51000e+02,8.51814e-03
6.52000e+02,8.53307e-03
6.53000e+02,8.49764e-03
6.54000e+02,8.43790e-03
6.55000e+02,8.34594e-03
6.56000e+02,8.37588e-03
6.57000e+02,8.42315e-03
6.58000e+02,8.49418e-03
6.59000e+02,8.57030e-03
6.60000e+02,8.62837e-03
6.61000e+02,8.70486e-03
6.62000e+02,8.76234e-03
6.63000e+02,8.90079e-03
6.64000e+02,9.06651e-03
6.65000e+02,9.25693e-03
6.66000e+02,9.39418e-03
6.67000e+02,9.46974e-03
6.68000e+02,9.49733e-03
6.69000e+02,9.51669e-03
6.70000e+02,9.55085e-03
6.71000e+02,9.58222e-03
6.72000e+02,9.55303e-03
6.73000e+02,9.46706e-03
6.74000e+02,9.36830e-03
6.75000e+02,9.32571e-03
6.76000e+02,9.31257e-03
6.77000e+02,9.30110e-03
6.78000e+02,9.24932e-03
6.79000e+02,9.16719e-03
6.80000e+02,9.06258e-03
6.81000e+02,8.94946e-03
6.82000e+02,8.83663e-03
6.83000e+02,8.74866e-03
6.84000e+02,8.67326e-03
6.85000e+02,8.65807e-03
6.86000e+02,8.65421e-03
6.87000e+02,8.63104e-03
6.88000e+02,8.51949e-03
6.89000e+02,8.37969e-03
6.90000e+02,8.28238e-03
6.91000e+02,8.21276e-03
6.92000e+02,8.16683e-03
6.93000e+02,8.03979e-03
6.94000e+02,7.96952e-03
6.95000e+02,7.95155e-03
6.96000e+02,7.98736e-03
6.97000e+02,8.04540e-03
6.98000e+02,8.14569e-03
6.99000e+02,8.34501e-03
7.00000e+02,8.52929e-03
7.01000e+02,8.69527e-03
7.02000e+02,8.75932e-03
7.03000e+02,8.73484e-03
7.04000e+02,8.63704e-03
7.05000e+02,8.56998e-03
7.06000e+02,8.52032e-03
7.07000e+02,8.54447e-03
7.08000e+02,8.61751e-03
7.09000e+02,8.71958e-03
7.10000e+02,8.71946e-03
7.11000e+02,8.64571e-03
7.12000e+02,8.55549e-03
7.13000e+02,8.49383e-03
7.14000e+02,8.44787e-03
7.15000e+02,8.45371e-03
7.16000e+02,8.48593e-03
7.17000e+02,8.55247e-03
7.18000e+02,8.67962e-03
7.19000e+02,8.82499e-03
7.20000e+02,9.00979e-03
7.21000e+02,9.16751e-03
7.22000e+02,9.31408e-03
7.23000e+02,9.38062e-03
7.24000e+02,9.32426e-03
7.25000e+02,9.11647e-03
7.26000e+02,8.90265e-03
7.27000e+02,8.74442e-03
7.28000e+02,8.67970e-03
7.29000e+02,8.61617e-03
7.30000e+02,8.47220e-03
7.31000e+02,8.31467e-03
7.32000e+02,8.16841e-03
7.33000e+02,8.12627e-03
7.34000e+02,8.17992e-03
7.35000e+02,8.31873e-03
7.36000e+02,8.45146e-03
7.37000e+02,8.50448e-03
7.38000e+02,8.46596e-03
7.39000e+02,8.42017e-03
7.40000e+02,8.42556e-03
7.41000e+02,8.47033e-03
7.42000e+02,8.45472e-03
7.43000e+02,8.35578e-03
7.44000e+02,8.21182e-03
7.45000e+02,8.05763e-03
7.46000e+02,7.90870e-03
7.47000e+02,7.72649e-03
7.48000e+02,7.55473e-03
7.49000e+02,7.41991e-03
7.50000e+02,7.33458e-03
7.51000e+02,7.29800e-03
7.52000e+02,7.26170e-03
7.53000e+02,7.19079e-03
7.54000e+02,7.03336e-03
7.55000e+02,6.85655e-03
7.56000e+02,6.72426e-03
7.57000e+02,6.67007e-03
7.58000e+02,6.59593e-03
7.59000e+02,6.44584e-03
7.60000e+02,6.23805e-03
7.61000e+02,6.03754e-03
7.62000e+02,5.89694e-03
7.63000e+02,5.82134e-03
7.64000e+02,5.76971e-03
7.65000e+02,5.75654e-03
7.66000e+02,5.80676e-03
7.67000e+02,5.93122e-03
7.68000e+02,6.06236e-03
7.69000e+02,6.18186e-03
7.70000e+02,6.27661e-03
7.71000e+02,6.33644e-03
7.72000e+02,6.39780e-03
7.73000e+02,6.46720e-03
7.74000e+02,6.51565e-03
7.75000e+02,6.48551e-03
7.76000e+02,6.33670e-03
7.77000e+02,6.21612e-03
7.78000e+02,6.15054e-03
7.79000e+02,6.19063e-03
7.80000e+02,6.27283e-03
7.81000e+02,6.35174e-03
7.82000e+02,6.42404e-03
7.83000e+02,6.48370e-03
7.84000e+02,6.53494e-03
7.85000e+02,6.53514e-03
7.86000e+02,6.50676e-03
7.87000e+02,6.50565e-03
7.88000e+02,6.49160e-03
7.89000e+02,6.45711e-03
7.90000e+02,6.33676e-03
7.91000e+02,6.20000e-03
7.92000e+02,6.03521e-03
7.93000e+02,5.95097e-03
7.94000e+02,5.93785e-03
7.95000e+02,6.00333e-03
7.96000e+02,6.07503e-03
7.97000e+02,6.14062e-03
7.98000e+02,6.18628e-03
7.99000e+02,6.18125e-03
8.00000e+02,6.13404e-03
8.01000e+02,6.07743e-03
8.02000e+02,6.07513e-03
8.03000e+02,6.07513e-03
8.04000e+02,6.07513e-03
8.05000e+02,6.06211e-03
8.06000e+02,6.09148e-03
8.07000e+02,6.18037e-03
8.08000e+02,6.26055e-03
8.09000e+02,6.18907e-03
8.10000e+02,5.99898e-03
8.11000e+02,5.74656e-03
8.12000e+02,5.51928e-03
8.13000e+02,5.34267e-03
8.14000e+02,5.24406e-03
8.15000e+02,5.20560e-03
8.16000e+02,5.18581e-03
8.17000e+02,5.19589e-03
8.18000e+02,5.25677e-03
8.19000e+02,5.34562e-03
8.20000e+02,5.39640e-03
8.21000e+02,5.40360e-03
8.22000e+02,5.37648e-03
8.23000e+02,5.33695e-03
8.24000e+02,5.31223e-03
8.25000e+02,5.30064e-03
8.26000e+02,5.27816e-03
8.27000e+02,5.25831e-03
8.28000e+02,5.23747e-03
8.29000e+02,5.25700e-03
8.30000e+02,5.25298e-03
8.31000e+02,5.23755e-03
8.32000e+02,5.23162e-03
8.33000e+02,5.27953e-03
8.34000e+02,5.34144e-03
8.35000e+02,5.37862e-03
8.36000e+02,5.36050e-03
8.37000e+02,5.32927e-03
8.38000e+02,5.30195e-03
8.39000e+02,5.30673e-03
8.40000e+02,5.31877e-03
8.41000e+02,5.28779e-03
8.42000e+02,5.22861e-03
8.43000e+02,5.17506e-03
8.44000e+02,5.19315e-03
8.45000e+02,5.27933e-03
8.46000e+02,5.34716e-03
8.47000e+02,5.33754e-03
8.48000e+02,5.23911e-03
8.49000e+02,5.16088e-03
8.50000e+02,5.12039e-03
8.51000e+02,5.10901e-03
8.52000e+02,5.10901e-03
8.53000e+02,5.13070e-03
8.54000e+02,5.14240e-03
8.55000e+02,5.19131e-03
8.56000e+02,5.20384e-03
8.57000e+02,5.17379e-03
8.58000e+02,5.07167e-03
8.59000e+02,4.96137e-03
8.60000e+02,4.84187e-03
8.61000e+02,4.73690e-03
8.62000e+02,4.65289e-03
8.63000e+02,4.64964e-03
8.64000e+02,4.72979e-03
8.65000e+02,4.83683e-03
8.66000e+02,4.99443e-03
8.67000e+02,5.19382e-03
8.68000e+02,5.31900e-03
8.69000e+02,5.40422e-03
8.70000e+02,5.38785e-03
8.71000e+02,5.35948e-03
8.72000e+02,5.30795e-03
8.73000e+02,5.28529e-03
8.74000e+02,5.25497e-03
8.75000e+02,5.24196e-03
8.76000e+02,5.23178e-03
8.77000e+02,5.23359e-03
8.78000e+02,5.26325e-03
8.79000e+02,5.31964e-03
8.80000e+02,5.37651e-03
8.81000e+02,5.41980e-03
8.82000e+02,5.44341e-03
8.83000e+02,5.51066e-03
8.84000e+02,5.58291e-03
8.85000e+02,5.68818e-03
8.86000e+02,5.75820e-03
8.87000e+02,5.82662e-03
8.88000e+02,5.88129e-03
8.89000e+02,5.96779e-03
8.90000e+02,6.05779e-03
8.91000e+02,6.16498e-03
8.92000e+02,6.25259e-03
8.93000e+02,6.32822e-03
8.94000e+02,6.39513e-03
8.95000e+02,6.44488e-03
8.96000e+02,6.49042e-03
8.97000e+02,6.47955e-03
8.98000e+02,6.39332e-03
8.99000e+02,6.29948e-03
9.00000e+02,6.28614e-03
9.01000e+02,6.36392e-03
9.02000e+02,6.42393e-03
9.03000e+02,6.48365e-03
9.04000e+02,6.52903e-03
9.05000e+02,6.59770e-03
9.06000e+02,6.68596e-03
9.07000e+02,6.77618e-03
9.08000e+02,6.80566e-03
9.09000e+02,6.76606e-03
9.10000e+02,6.70702e-03
9.11000e+02,6.64205e-03
9.12000e+02,6.58002e-03
9.13000e+02,6.52751e-03
9.14000e+02,6.51784e-03
9.15000e+02,6.59371e-03
9.16000e+02,6.68524e-03
9.17000e+02,6.76360e-03
9.18000e+02,6.81453e-03
9.19000e+02,6.85644e-03
9.20000e+02,6.88044e-03
9.21000e+02,6.88661e-03
9.22000e+02,6.86098e-03
9.23000e+02,6.76623e-03
9.24000e+02,6.65084e-03
9.25000e+02,6.57587e-03
9.26000e+02,6.56173e-03
9.27000e+02,6.62017e-03
9.28000e+02,6.66560e-03
9.29000e+02,6.74707e-03
9.30000e+02,6.77686e-03
9.31000e+02,6.76922e-03
9.32000e+02,6.73648e-03
9.33000e+02,6.73394e-03
9.34000e+02,6.78401e-03
9.35000e+02,6.86111e-03
9.36000e+02,6.87887e-03
9.37000e+02,6.88170e-03
9.38000e+02,6.92245e-03
9.39000e+02,7.04453e-03
9.40000e+02,7.15057e-03
9.41000e+02,7.23345e-03
9.42000e+02,7.25815e-03
9.43000e+02,7.26967e-03
9.44000e+02,7.24797e-03
9.45000e+02,7.26130e-03
9.46000e+02,7.26695e-03
9.47000e+02,7.33010e-03
9.48000e+02,7.37076e-03
9.49000e+02,7.45937e-03
9.50000e+02,7.53711e-03
9.51000e+02,7.60582e-03
9.52000e+02,7.61395e-03
9.53000e+02,7.58702e-03
9.54000e+02,7.45624e-03
9.55000e+02,7.24297e-03
9.56000e+02,7.00924e-03
9.57000e+02,6.81164e-03
9.58000e+02,6.64289e-03
9.59000e+02,6.52508e-03
9.60000e+02,6.43299e-03
9.61000e+02,6.40927e-03
9.62000e+02,6.38284e-03
9.63000e+02,6.35431e-03
9.64000e+02,6.29839e-03
9.65000e+02,6.25025e-03
9.66000e+02,6.27751e-03
9.67000e+02,6.35481e-03
9.68000e+02,6.41974e-03
9.69000e+02,6.40121e-03
9.70000e+02,6.35073e-03
9.71000e+02,6.29013e-03
9.72000e+02,6.24053e-03
9.73000e+02,6.21562e-03
9.74000e+02,6.18578e-03
9.75000e+02,6.16248e-03
9.76000e+02,6.08461e-03
9.77000e+02,6.01425e-03
9.78000e+02,5.93965e-03
9.79000e+02,5.87852e-03
9.80000e+02,5.74611e-03
9.81000e+02,5.60420e-03
9.82000e+02,5.45143e-03
9.83000e+02,5.38150e-03
9.84000e+02,5.37449e-03
9.85000e+02,5.42493e-03
9.86000e+02,5.46248e-03
9.87000e+02,5.45871e-03
9.88000e+02,5.42392e-03
9.89000e+02,5.44309e-03
9.90000e+02,5.47929e-03
9.91000e+02,5.49835e-03
9.92000e+02,5.44919e-03
9.93000e+02,5.38918e-03
9.94000e+02,5.32467e-03
9.95000e+02,5.26076e-03
9.96000e+02,5.15776e-03
9.97000e+02,5.11250e-03
9.98000e+02,5.09184e-03
9.99000e+02,5.13957e-03
1.00000e+03,5.15138e-03
1.00100e+03,5.15616e-03
1.00200e+03,5.13473e-03
1.00300e+03,5.13973e-03
1.00400e+03,5.15205e-03
1.00500e+03,5.19169e-03
1.00600e+03,5.17849e-03
1.00700e+03,5.13631e-03
1.00800e+03,5.07701e-03
1.00900e+03,4.99178e-03
1.01000e+03,4.89272e-03
1.01100e+03,4.81704e-03
1.01200e+03,4.76130e-03
1.01300e+03,4.72363e-03
1.01400e+03,4.72664e-03
1.01500e+03,4.72664e-03
1.01600e+03,4.73064e-03
1.01700e+03,4.74670e-03
1.01800e+03,4.72447e-03
1.01900e+03,4.70267e-03
1.02000e+03,4.65693e-03
1.02100e+03,4.71753e-03
1.02200e+03,4.86403e-03
1.02300e+03,5.06523e-03
1.02400e+03,5.21649e-03
1.02500e+03,5.24913e-03
1.02600e+03,5.14398e-03
1.02700e+03,5.04005e-03
1.02800e+03,4.93795e-03
1.02900e+03,4.85819e-03
1.03000e+03,4.83410e-03
1.03100e+03,4.84142e-03
1.03200e+03,4.87075e-03
1.03300e+03,4.92221e-03
1.03400e+03,4.97497e-03
1.03500e+03,5.00931e-03
1.03600e+03,5.02001e-03
1.03700e+03,5.05335e-03
1.03800e+03,5.08018e-03
1.03900e+03,5.09129e-03
1.04000e+03,5.04867e-03
1.04100e+03,5.03677e-03
1.04200e+03,5.07417e-03
1.04300e+03,5.16182e-03
1.04400e+03,5.18415e-03
1.04500e+03,5.18527e-03
1.04600e+03,5.22587e-03
1.04700e+03,5.35349e-03
1.04800e+03,5.48904e-03
1.04900e+03,5.60779e-03
1.05000e+03,5.73316e-03
1.05100e+03,5.84597e-03
1.05200e+03,5.93274e-03
1.05300e+03,5.97954e-03
1.05400e+03,6.03787e-03
1.05500e+03,6.11201e-03
1.05600e+03,6.18625e-03
1.05700e+03,6.18301e-03
1.05800e+03,6.10457e-03
1.05900e+03,5.95749e-03
1.06000e+03,5.81314e-03
1.06100e+03,5.67526e-03
1.06200e+03,5.56443e-03
1.06300e+03,5.50715e-03
1.06400e+03,5.53614e-03
1.06500e+03,5.63730e-03
1.06600e+03,5.71689e-03
1.06700e+03,5.77499e-03
1.06800e+03,5.78522e-03
1.06900e+03,5.79417e-03
1.07000e+03,5.81191e-03
1.07100e+03,5.85569e-03
1.07200e+03,5.88717e-03
1.07300e+03,5.87574e-03
1.07400e+03,5.82620e-03
1.07500e+03,5.74471e-03
1.07600e+03,5.66965e-03
1.07700e+03,5.62049e-03
1.07800e+03,5.61863e-03
1.07900e+03,5.64303e-03
1.08000e+03,5.64097e-03
1.08100e+03,5.63049e-03
1.08200e+03,5.61785e-03
1.08300e+03,5.66492e-03
1.08400e+03,5.73074e-03
1.08500e+03,5.81392e-03
1.08600e+03,5.87847e-03
1.08700e+03,5.93768e-03
1.08800e+03,5.94089e-03
1.08900e+03,5.92406e-03
1.09000e+03,5.87321e-03
1.09100e+03,5.85686e-03
1.09200e+03,5.84187e-03
1.09300e+03,5.84352e-03
1.09400e+03,5.83852e-03
1.09500e+03,5.82620e-03
1.09600e+03,5.77151e-03
1.09700e+03,5.68142e-03
1.09800e+03,5.59793e-03
1.09900e+03,5.53655e-03
1.10000e+03,5.55058e-03
1.10100e+03,5.59611e-03
1.10200e+03,5.63052e-03
1.10300e+03,5.67563e-03
1.10400e+03,5.78725e-03
1.10500e+03,5.92485e-03
1.10600e+03,6.08753e-03
1.10700e+03,6.15198e-03
1.10800e+03,6.17284e-03
1.10900e+03,6.14737e-03
1.11000e+03,6.15459e-03
1.11100e+03,6.16559e-03
1.11200e+03,6.11566e-03
1.11300e+03,6.02498e-03
1.11400e+03,5.87467e-03
1.11500e+03,5.75375e-03
1.11600e+03,5.68518e-03
1.11700e+03,5.71216e-03
1.11800e+03,5.78993e-03
1.11900e+03,5.86876e-03
1.12000e+03,5.93262e-03
1.12100e+03,5.84877e-03
1.12200e+03,5.75071e-03
1.12300e+03,5.63850e-03
1.12400e+03,5.56249e-03
1.12500e+03,5.52066e-03
1.12600e+03,5.53025e-03
1.12700e+03,5.54163e-03
1.12800e+03,5.45111e-03
1.12900e+03,5.33197e-03
1.13000e+03,5.23050e-03
1.13100e+03,5.18013e-03
1.13200e+03,5.13846e-03
1.13300e+03,5.10730e-03
1.13400e+03,5.06597e-03
1.13500e+03,5.07772e-03
1.13600e+03,5.09757e-03
1.13700e+03,5.09700e-03
1.13800e+03,5.04455e-03
1.13900e+03,5.01840e-03
1.14000e+03,5.02477e-03
1.14100e+03,5.03024e-03
1.14200e+03,5.01115e-03
1.14300e+03,4.97481e-03
1.14400e+03,4.92279e-03
1.14500e+03,4.84703e-03
1.14600e+03,4.74861e-03
1.14700e+03,4.65389e-03
1.14800e+03,4.57130e-03
1.14900e+03,4.52175e-03
1.15000e+03,4.51750e-03
1.15100e+03,4.53646e-03
1.15200e+03,4.57999e-03
1.15300e+03,4.64538e-03
1.15400e+03,4.71636e-03
1.15500e+03,4.76425e-03
1.15600e+03,4.75807e-03
1.15700e+03,4.72464e-03
1.15800e+03,4.66363e-03
1.15900e+03,4.58826e-03
1.16000e+03,4.51380e-03
1.16100e+03,4.43693e-03
1.16200e+03,4.37764e-03
1.16300e+03,4.33645e-03
1.16400e+03,4.32645e-03
1.16500e+03,4.35504e-03
1.16600e+03,4.42179e-03
1.16700e+03,4.52528e-03
1.16800e+03,4.64333e-03
1.16900e+03,4.75694e-03
1.17000e+03,4.85006e-03
1.17100e+03,4.92187e-03
1.17200e+03,4.97584e-03
1.17300e+03,5.03070e-03
1.17400e+03,5.04245e-03
1.17500e+03,5.06777e-03
1.17600e+03,5.08410e-03
1.17700e+03,5.15432e-03
1.17800e+03,5.19111e-03
1.17900e+03,5.21273e-03
1.18000e+03,5.20671e-03
1.18100e+03,5.23530e-03
1.18200e+03,5.23358e-03
1.18300e+03,5.21677e-03
1.18400e+03,5.21512e-03
1.18500e+03,5.24756e-03
1.18600e+03,5.35331e-03
1.18700e+03,5.48182e-03
1.18800e+03,5.62647e-03
1.18900e+03,5.69569e-03
1.19000e+03,5.74733e-03
1.19100e+03,5.76170e-03
1.19200e+03,5.80797e-03
1.19300e+03,5.86678e-03
1.19400e+03,5.89904e-03
1.19500e+03,5.84701e-03
1.19600e+03,5.74156e-03
1.19700e+03,5.62538e-03
1.19800e+03,5.60197e-03
1.19900e+03,5.61139e-03
1.20000e+03,5.69177e-03
1.20100e+03,5.79155e-03
1.20200e+03,5.87805e-03
1.20300e+03,5.92873e-03
1.20400e+03,5.92309e-03
1.20500e+03,5.94780e-03
1.20600e+03,5.98840e-03
1.20700e+03,6.00281e-03
1.20800e+03,5.96234e-03
1.20900e+03,5.88457e-03
1.21000e+03,5.81376e-03
1.21100e+03,5.72800e-03
1.21200e+03,5.71373e-03
1.21300e+03,5.69842e-03
1.21400e+03,5.70929e-03
1.21500e+03,5.72305e-03
1.21600e+03,5.71172e-03
1.21700e+03,5.69617e-03
1.21800e+03,5.68752e-03
1.21900e+03,5.77695e-03
1.22000e+03,5.89646e-03
1.22100e+03,6.00086e-03
1.22200e+03,6.02175e-03
1.22300e+03,5.97675e-03
1.22400e+03,5.90179e-03
1.22500e+03,5.85614e-03
1.22600e+03,5.82206e-03
1.22700e+03,5.82722e-03
1.22800e+03,5.80247e-03
1.22900e+03,5.80616e-03
1.23000e+03,5.74056e-03
1.23100e+03,5.65601e-03
1.23200e+03,5.57607e-03
1.23300e+03,5.61871e-03
1.23400e+03,5.74944e-03
1.23500e+03,5.90828e-03
1.23600e+03,6.01962e-03
1.23700e+03,6.05533e-03
1.23800e+03,6.06111e-03
1.23900e+03,6.07102e-03
1.24000e+03,6.09607e-03
1.24100e+03,6.15807e-03
1.24200e+03,6.21600e-03
1.24300e+03,6.25226e-03
1.24400e+03,6.23628e-03
1.24500e+03,6.19598e-03
1.24600e+03,6.14036e-03
1.24700e+03,6.12584e-03
1.24800e+03,6.15428e-03
1.24900e+03,6.22931e-03
1.25000e+03,6.29603e-03
1.25100e+03,6.34344e-03
1.25200e+03,6.35733e-03
1.25300e+03,6.37880e-03
1.25400e+03,6.39097e-03
1.25500e+03,6.40606e-03
1.25600e+03,6.37530e-03
1.25700e+03,6.31156e-03
1.25800e+03,6.22177e-03
1.25900e+03,6.13352e-03
1.26000e+03,6.01081e-03
1.26100e+03,5.87834e-03
1.26200e+03,5.74368e-03
1.26300e+03,5.61430e-03
1.26400e+03,5.48888e-03
1.26500e+03,5.45482e-03
1.26600e+03,5.44409e-03
1.26700e+03,5.44944e-03
1.26800e+03,5.40419e-03
1.26900e+03,5.38389e-03
1.27000e+03,5.37529e-03
1.27100e+03,5.38610e-03
1.27200e+03,5.36456e-03
1.27300e+03,5.38101e-03
1.27400e+03,5.41651e-03
1.27500e+03,5.46846e-03
1.27600e+03,5.47302e-03
1.27700e+03,5.40319e-03
1.27800e+03,5.30797e-03
1.27900e+03,5.20131e-03
1.28000e+03,5.12044e-03
1.28100e+03,5.03092e-03
1.28200e+03,4.96203e-03
1.28300e+03,4.92299e-03
1.28400e+03,4.91359e-03
1.28500e+03,4.94549e-03
1.28600e+03,5.00502e-03
1.28700e+03,5.07456e-03
1.28800e+03,5.11739e-03
1.28900e+03,5.11039e-03
1.29000e+03,5.07624e-03
1.29100e+03,5.00400e-03
1.29200e+03,4.88988e-03
1.29300e+03,4.75665e-03
1.29400e+03,4.65618e-03
1.29500e+03,4.60392e-03
1.29600e+03,4.55995e-03
1.29700e+03,4.47183e-03
1.29800e+03,4.42577e-03
1.29900e+03,4.42577e-03
1.30000e+03,4.43001e-03
1.30100e+03,4.42198e-03
1.30200e+03,4.42787e-03
1.30300e+03,4.42862e-03
1.30400e+03,4.43398e-03
1.30500e+03,4.42347e-03
1.30600e+03,4.40893e-03
1.30700e+03,4.40826e-03
1.30800e+03,4.40360e-03
1.30900e+03,4.37620e-03
1.31000e+03,4.31255e-03
1.31100e+03,4.20643e-03
1.31200e+03,4.10337e-03
1.31300e+03,4.06524e-03
1.31400e+03,4.08980e-03
1.31500e+03,4.15752e-03
1.31600e+03,4.22428e-03
1.31700e+03,4.28203e-03
1.31800e+03,4.29742e-03
1.31900e+03,4.32106e-03
1.32000e+03,4.25236e-03
1.32100e+03,4.18936e-03
1.32200e+03,4.11816e-03
1.32300e+03,4.05988e-03
1.32400e+03,3.93333e-03
1.32500e+03,3.75218e-03
1.32600e+03,3.61240e-03
1.32700e+03,3.55629e-03
1.32800e+03,3.56665e-03
1.32900e+03,3.56665e-03
1.33000e+03,3.58040e-03
1.33100e+03,3.62164e-03
1.33200e+03,3.65270e-03
1.33300e+03,3.64638e-03
1.33400e+03,3.63110e-03
1.33500e+03,3.65359e-03
1.33600e+03,3.69054e-03
1.33700e+03,3.68686e-03
1.33800e+03,3.62916e-03
1.33900e+03,3.56165e-03
1.34000e+03,3.47164e-03
1.34100e+03,3.40620e-03
1.34200e+03,3.35879e-03
1.34300e+03,3.37216e-03
1.34400e+03,3.38930e-03
1.34500e+03,3.42217e-03
1.34600e+03,3.44150e-03
1.34700e+03,3.45777e-03
1.34800e+03,3.44327e-03
1.34900e+03,3.41351e-03
1.35000e+03,3.39838e-03
1.35100e+03,3.47263e-03
1.35200e+03,3.57222e-03
1.35300e+03,3.69121e-03
1.35400e+03,3.81689e-03
1.35500e+03,3.97887e-03
1.35600e+03,4.09259e-03
1.35700e+03,4.14868e-03
1.35800e+03,4.15882e-03
1.35900e+03,4.15938e-03
1.36000e+03,4.18087e-03
1.36100e+03,4.20637e-03
1.36200e+03,4.25353e-03
1.36300e+03,4.28035e-03
1.36400e+03,4.25876e-03
1.36500e+03,4.21326e-03
1.36600e+03,4.16131e-03
1.36700e+03,4.12430e-03
1.36800e+03,4.09367e-03
1.36900e+03,4.08121e-03
1.37000e+03,4.08111e-03
1.37100e+03,4.12418e-03
1.37200e+03,4.16684e-03
1.37300e+03,4.22177e-03
1.37400e+03,4.23462e-03
1.37500e+03,4.21903e-03
1.37600e+03,4.14384e-03
1.37700e+03,4.05363e-03
1.37800e+03,3.98013e-03
1.37900e+03,3.95701e-03
1.38000e+03,3.98032e-03
1.38100e+03,4.00647e-03
1.38200e+03,4.05562e-03
1.38300e+03,4.09410e-03
1.38400e+03,4.09980e-03
1.38500e+03,4.09506e-03
1.38600e+03,4.07580e-03
1.38700e+03,4.04566e-03
1.38800e+03,4.05781e-03
1.38900e+03,4.05781e-03
1.39000e+03,4.06391e-03
1.39100e+03,4.05966e-03
1.39200e+03,4.06475e-03
1.39300e+03,4.06717e-03
1.39400e+03,4.09961e-03
1.39500e+03,4.12745e-03
1.39600e+03,4.16029e-03
1.39700e+03,4.17673e-03
1.39800e+03,4.19947e-03
1.39900e+03,4.20895e-03
1.40000e+03,4.23108e-03
1.40100e+03,4.23542e-03
1.40200e+03,4.25523e-03
1.40300e+03,4.28709e-03
1.40400e+03,4.31956e-03
1.40500e+03,4.32820e-03
1.40600e+03,4.29367e-03
1.40700e+03,4.25131e-03
1.40800e+03,4.22675e-03
1.40900e+03,4.21843e-03
1.41000e+03,4.20937e-03
1.41100e+03,4.23026e-03
1.41200e+03,4.26346e-03
1.41300e+03,4.29666e-03
1.41400e+03,4.32985e-03
1.41500e+03,4.35323e-03
1.41600e+03,4.38643e-03
1.41700e+03,4.37838e-03
1.41800e+03,4.35635e-03
1.41900e+03,4.34347e-03
1.42000e+03,4.36641e-03
1.42100e+03,4.37596e-03
1.42200e+03,4.33574e-03
1.42300e+03,4.27588e-03
1.42400e+03,4.23850e-03
1.42500e+03,4.20718e-03
1.42600e+03,4.16849e-03
1.42700e+03,4.11868e-03
1.42800e+03,4.08807e-03
1.42900e+03,4.05991e-03
1.43000e+03,4.03705e-03
1.43100e+03,4.04138e-03
1.43200e+03,4.07330e-03
1.43300e+03,4.10650e-03
1.43400e+03,4.11244e-03
1.43500e+03,4.09863e-03
1.43600e+03,4.08040e-03
1.43700e+03,4.07849e-03
1.43800e+03,4.09203e-03
1.43900e+03,4.12307e-03