Pixels #,Intensity (a.u.)
0.00000e+00,1.60265e-02
1.00000e+00,1.59077e-02
2.00000e+00,1.57978e-02
3.00000e+00,1.56644e-02
4.00000e+00,1.55131e-02
5.00000e+00,1.53071e-02
6.00000e+00,1.50879e-02
7.00000e+00,1.48961e-02
8.00000e+00,1.47344e-02
9.00000e+00,1.45784e-02
1.00000e+01,1.43918e-02
1.10000e+01,1.41860e-02
1.20000e+01,1.40174e-02
1.30000e+01,1.38905e-02
1.40000e+01,1.38148e-02
1.50000e+01,1.37403e-02
1.60000e+01,1.36008e-02
1.70000e+01,1.33637e-02
1.80000e+01,1.31134e-02
1.90000e+01,1.28631e-02
2.00000e+01,1.26286e-02
2.10000e+01,1.24163e-02
2.20000e+01,1.22448e-02
2.30000e+01,1.20986e-02
2.40000e+01,1.19430e-02
2.50000e+01,1.17630e-02
2.60000e+01,1.15614e-02
2.70000e+01,1.13713e-02
2.80000e+01,1.11991e-02
2.90000e+01,1.10506e-02
3.00000e+01,1.09220e-02
3.10000e+01,1.08246e-02
3.20000e+01,1.07403e-02
3.30000e+01,1.05923e-02
3.40000e+01,1.03782e-02
3.50000e+01,1.01279e-02
3.60000e+01,9.88914e-03
3.70000e+01,9.70411e-03
3.80000e+01,9.53673e-03
3.90000e+01,9.39433e-03
4.00000e+01,9.21040e-03
4.10000e+01,9.03371e-03
4.20000e+01,8.84105e-03
4.30000e+01,8.64457e-03
4.40000e+01,8.41145e-03
4.50000e+01,8.16410e-03
4.60000e+01,7.94092e-03
4.70000e+01,7.81276e-03
4.80000e+01,7.75728e-03
4.90000e+01,7.74314e-03
5.00000e+01,7.65459e-03
5.10000e+01,7.54251e-03
5.20000e+01,7.41787e-03
5.30000e+01,7.40696e-03
5.40000e+01,7.42207e-03
5.50000e+01,7.44457e-03
5.60000e+01,7.40967e-03
5.70000e+01,7.40967e-03
5.80000e+01,7.45455e-03
5.90000e+01,7.52293e-03
6.00000e+01,7.57117e-03
6.10000e+01,7.59273e-03
6.20000e+01,7.60388e-03
6.30000e+01,7.58634e-03
6.40000e+01,7.57351e-03
6.50000e+01,7.53888e-03
6.60000e+01,7.48298e-03
6.70000e+01,7.37542e-03
6.80000e+01,7.28688e-03
6.90000e+01,7.19872e-03
7.00000e+01,7.14739e-03
7.10000e+01,7.10437e-03
7.20000e+01,7.07547e-03
7.30000e+01,6.97667e-03
7.40000e+01,6.85577e-03
7.50000e+01,6.72765e-03
7.60000e+01,6.65716e-03
7.70000e+01,6.61200e-03
7.80000e+01,6.58281e-03
7.90000e+01,6.56345e-03
8.00000e+01,6.55970e-03
8.10000e+01,6.51366e-03
8.20000e+01,6.39744e-03
8.30000e+01,6.26187e-03
8.40000e+01,6.20772e-03
8.50000e+01,6.24810e-03
8.60000e+01,6.33156e-03
8.70000e+01,6.41719e-03
8.80000e+01,6.48001e-03
8.90000e+01,6.52412e-03
9.00000e+01,6.50927e-03
9.10000e+01,6.43854e-03
9.20000e+01,6.34603e-03
9.30000e+01,6.21711e-03
9.40000e+01,6.13478e-03
9.50000e+01,6.08395e-03
9.60000e+01,6.10204e-03
9.70000e+01,6.13587e-03
9.80000e+01,6.16324e-03
9.90000e+01,6.15863e-03
1.00000e+02,6.13708e-03
1.01000e+02,6.12929e-03
1.02000e+02,6.17173e-03
1.03000e+02,6.19560e-03
1.04000e+02,6.18607e-03
1.05000e+02,6.10423e-03
1.06000e+02,6.00373e-03
1.07000e+02,5.93910e-03
1.08000e+02,5.96279e-03
1.09000e+02,5.97961e-03
1.10000e+02,6.00480e-03
1.11000e+02,6.00589e-03
1.12000e+02,6.02534e-03
1.13000e+02,6.02297e-03
1.14000e+02,6.01488e-03
1.15000e+02,5.99276e-03
1.16000e+02,5.98829e-03
1.17000e+02,6.00477e-03
1.18000e+02,5.98447e-03
1.19000e+02,5.91736e-03
1.20000e+02,5.81550e-03
1.21000e+02,5.70629e-03
1.22000e+02,5.58343e-03
1.23000e+02,5.47920e-03
1.24000e+02,5.43704e-03
1.25000e+02,5.46264e-03
1.26000e+02,5.52924e-03
1.27000e+02,5.60085e-03
1.28000e+02,5.60844e-03
1.29000e+02,5.60998e-03
1.30000e+02,5.58875e-03
1.31000e+02,5.62196e-03
1.32000e+02,5.61727e-03
1.33000e+02,5.62313e-03
1.34000e+02,5.62102e-03
1.35000e+02,5.64738e-03
1.36000e+02,5.65654e-03
1.37000e+02,5.62941e-03
1.38000e+02,5.55454e-03
1.39000e+02,5.45344e-03
1.40000e+02,5.38520e-03
1.41000e+02,5.40920e-03
1.42000e+02,5.48604e-03
1.43000e+02,5.55397e-03
1.44000e+02,5.56706e-03
1.45000e+02,5.56298e-03
1.46000e+02,5.56619e-03
1.47000e+02,5.61062e-03
1.48000e+02,5.65229e-03
1.49000e+02,5.64814e-03
1.50000e+02,5.60221e-03
1.51000e+02,5.51034e-03
1.52000e+02,5.43858e-03
1.53000e+02,5.35869e-03
1.54000e+02,5.32121e-03
1.55000e+02,5.27621e-03
1.56000e+02,5.26613e-03
1.57000e+02,5.29430e-03
1.58000e+02,5.36668e-03
1.59000e+02,5.45403e-03
1.60000e+02,5.56814e-03
1.61000e+02,5.65946e-03
1.62000e+02,5.68289e-03
1.63000e+02,5.67755e-03
1.64000e+02,5.72543e-03
1.65000e+02,5.77480e-03
1.66000e+02,5.78940e-03
1.67000e+02,5.76307e-03
1.68000e+02,5.78461e-03
1.69000e+02,5.86531e-03
1.70000e+02,5.98278e-03
1.71000e+02,6.07163e-03
1.72000e+02,6.14573e-03
1.73000e+02,6.20340e-03
1.74000e+02,6.25202e-03
1.75000e+02,6.27136e-03
1.76000e+02,6.27997e-03
1.77000e+02,6.28261e-03
1.78000e+02,6.26504e-03
1.79000e+02,6.19685e-03
1.80000e+02,6.10423e-03
1.81000e+02,6.01592e-03
1.82000e+02,6.00361e-03
1.83000e+02,6.03212e-03
1.84000e+02,6.13355e-03
1.85000e+02,6.23533e-03
1.86000e+02,6.32361e-03
1.87000e+02,6.37259e-03
1.88000e+02,6.40384e-03
1.89000e+02,6.42888e-03
1.90000e+02,6.46767e-03
1.91000e+02,6.49516e-03
1.92000e+02,6.52125e-03
1.93000e+02,6.50540e-03
1.94000e+02,6.49824e-03
1.95000e+02,6.48033e-03
1.96000e+02,6.44724e-03
1.97000e+02,6.37195e-03
1.98000e+02,6.32577e-03
1.99000e+02,6.30082e-03
2.00000e+02,6.29894e-03
2.01000e+02,6.30373e-03
2.02000e+02,6.33378e-03
2.03000e+02,6.37722e-03
2.04000e+02,6.41216e-03
2.05000e+02,6.44497e-03
2.06000e+02,6.49413e-03
2.07000e+02,6.58978e-03
2.08000e+02,6.70689e-03
2.09000e+02,6.88885e-03
2.10000e+02,7.06545e-03
2.11000e+02,7.20300e-03
2.12000e+02,7.27083e-03
2.13000e+02,7.34547e-03
2.14000e+02,7.38003e-03
2.15000e+02,7.37252e-03
2.16000e+02,7.31067e-03
2.17000e+02,7.24407e-03
2.18000e+02,7.18260e-03
2.19000e+02,7.16448e-03
2.20000e+02,7.16025e-03
2.21000e+02,7.21129e-03
2.22000e+02,7.26748e-03
2.23000e+02,7.32637e-03
2.24000e+02,7.36540e-03
2.25000e+02,7.40666e-03
2.26000e+02,7.43342e-03
2.27000e+02,7.45563e-03
2.28000e+02,7.46614e-03
2.29000e+02,7.52992e-03
2.30000e+02,7.62350e-03
2.31000e+02,7.71315e-03
2.32000e+02,7.73825e-03
2.33000e+02,7.69192e-03
2.34000e+02,7.65326e-03
2.35000e+02,7.58903e-03
2.36000e+02,7.49727e-03
2.37000e+02,7.42250e-03
2.38000e+02,7.36967e-03
2.39000e+02,7.34570e-03
2.40000e+02,7.31298e-03
2.41000e+02,7.29028e-03
2.42000e+02,7.29028e-03
2.43000e+02,7.32369e-03
2.44000e+02,7.34363e-03
2.45000e+02,7.33311e-03
2.46000e+02,7.27663e-03
2.47000e+02,7.19041e-03
2.48000e+02,7.09029e-03
2.49000e+02,7.02199e-03
2.50000e+02,6.97511e-03
2.51000e+02,6.92010e-03
2.52000e+02,6.85576e-03
2.53000e+02,6.83320e-03
2.54000e+02,6.83632e-03
2.55000e+02,6.83054e-03
2.56000e+02,6.80046e-03
2.57000e+02,6.78779e-03
2.58000e+02,6.78790e-03
2.59000e+02,6.77832e-03
2.60000e+02,6.72962e-03
2.61000e+02,6.66544e-03
2.62000e+02,6.60360e-03
2.63000e+02,6.57885e-03
2.64000e+02,6.56745e-03
2.65000e+02,6.56047e-03
2.66000e+02,6.55256e-03
2.67000e+02,6.51711e-03
2.68000e+02,6.50206e-03
2.69000e+02,6.50020e-03
2.70000e+02,6.54458e-03
2.71000e+02,6.57071e-03
2.72000e+02,6.58894e-03
2.73000e+02,6.62731e-03
2.74000e+02,6.68529e-03
2.75000e+02,6.70853e-03
2.76000e+02,6.67123e-03
2.77000e+02,6.59933e-03
2.78000e+02,6.56695e-03
2.79000e+02,6.56745e-03
2.80000e+02,6.61345e-03
2.81000e+02,6.65487e-03
2.82000e+02,6.70306e-03
2.83000e+02,6.71924e-03
2.84000e+02,6.73945e-03
2.85000e+02,6.73985e-03
2.86000e+02,6.77395e-03
2.87000e+02,6.85732e-03
2.88000e+02,7.00264e-03
2.89000e+02,7.15573e-03
2.90000e+02,7.26184e-03
2.91000e+02,7.33219e-03
2.92000e+02,7.34573e-03
2.93000e+02,7.34966e-03
2.94000e+02,7.33232e-03
2.95000e+02,7.31384e-03
2.96000e+02,7.27867e-03
2.97000e+02,7.23257e-03
2.98000e+02,7.13816e-03
2.99000e+02,7.00198e-03
3.00000e+02,6.80357e-03
3.01000e+02,6.62808e-03
3.02000e+02,6.52520e-03
3.03000e+02,6.48182e-03
3.04000e+02,6.38149e-03
3.05000e+02,6.28518e-03
3.06000e+02,6.23259e-03
3.07000e+02,6.25196e-03
3.08000e+02,6.31155e-03
3.09000e+02,6.35464e-03
3.10000e+02,6.32804e-03
3.11000e+02,6.24779e-03
3.12000e+02,6.11009e-03
3.13000e+02,5.95431e-03
3.14000e+02,5.83374e-03
3.15000e+02,5.75321e-03
3.16000e+02,5.69715e-03
3.17000e+02,5.65162e-03
3.18000e+02,5.61729e-03
3.19000e+02,5.60678e-03
3.20000e+02,5.54300e-03
3.21000e+02,5.47115e-03
3.22000e+02,5.46917e-03
3.23000e+02,5.59766e-03
3.24000e+02,5.77604e-03
3.25000e+02,5.89186e-03
3.26000e+02,5.94448e-03
3.27000e+02,5.96781e-03
3.28000e+02,5.98975e-03
3.29000e+02,6.00916e-03
3.30000e+02,5.99278e-03
3.31000e+02,5.97567e-03
3.32000e+02,5.97567e-03
3.33000e+02,5.99610e-03
3.34000e+02,5.99329e-03
3.35000e+02,5.96982e-03
3.36000e+02,5.93022e-03
3.37000e+02,5.96431e-03
3.38000e+02,6.11340e-03
3.39000e+02,6.32571e-03
3.40000e+02,6.53648e-03
3.41000e+02,6.65292e-03
3.42000e+02,6.70371e-03
3.43000e+02,6.70456e-03
3.44000e+02,6.72400e-03
3.45000e+02,6.75563e-03
3.46000e+02,6.83812e-03
3.47000e+02,6.89422e-03
3.48000e+02,6.91191e-03
3.49000e+02,6.85064e-03
3.50000e+02,6.75552e-03
3.51000e+02,6.65675e-03
3.52000e+02,6.58715e-03
3.53000e+02,6.57863e-03
3.54000e+02,6.57650e-03
3.55000e+02,6.54880e-03
3.56000e+02,6.46035e-03
3.57000e+02,6.35668e-03
3.58000e+02,6.27341e-03
3.59000e+02,6.20586e-03
3.60000e+02,6.16064e-03
3.61000e+02,6.09363e-03
3.62000e+02,6.02967e-03
3.63000e+02,5.98754e-03
3.64000e+02,5.89015e-03
3.65000e+02,5.80161e-03
3.66000e+02,5.73099e-03
3.67000e+02,5.72229e-03
3.68000e+02,5.75520e-03
3.69000e+02,5.77772e-03
3.70000e+02,5.79578e-03
3.71000e+02,5.75428e-03
3.72000e+02,5.65249e-03
3.73000e+02,5.52085e-03
3.74000e+02,5.42465e-03
3.75000e+02,5.42668e-03
3.76000e+02,5.49800e-03
3.77000e+02,5.56071e-03
3.78000e+02,5.54041e-03
3.79000e+02,5.42315e-03
3.80000e+02,5.27006e-03
3.81000e+02,5.15199e-03
3.82000e+02,5.06670e-03
3.83000e+02,5.02554e-03
3.84000e+02,4.97854e-03
3.85000e+02,4.93505e-03
3.86000e+02,4.93050e-03
3.87000e+02,4.98990e-03
3.88000e+02,5.05008e-03
3.89000e+02,5.08414e-03
3.90000e+02,5.09090e-03
3.91000e+02,5.11278e-03
3.92000e+02,5.14954e-03
3.93000e+02,5.15775e-03
3.94000e+02,5.16176e-03
3.95000e+02,5.18443e-03
3.96000e+02,5.25538e-03
3.97000e+02,5.34738e-03
3.98000e+02,5.46664e-03
3.99000e+02,5.53043e-03
4.00000e+02,5.59598e-03
4.01000e+02,5.65366e-03
4.02000e+02,5.73234e-03
4.03000e+02,5.78116e-03
4.04000e+02,5.85020e-03
4.05000e+02,5.88492e-03
4.06000e+02,5.93128e-03
4.07000e+02,5.97539e-03
4.08000e+02,6.06672e-03
4.09000e+02,6.15745e-03
4.10000e+02,6.18278e-03
4.11000e+02,6.18278e-03
4.12000e+02,6.16104e-03
4.13000e+02,6.06222e-03
4.14000e+02,5.85477e-03
4.15000e+02,5.67090e-03
4.16000e+02,5.55347e-03
4.17000e+02,5.53370e-03
4.18000e+02,5.55884e-03
4.19000e+02,5.61852e-03
4.20000e+02,5.66449e-03
4.21000e+02,5.71143e-03
4.22000e+02,5.72725e-03
4.23000e+02,5.73376e-03
4.24000e+02,5.71544e-03
4.25000e+02,5.67876e-03
4.26000e+02,5.66023e-03
4.27000e+02,5.67622e-03
4.28000e+02,5.71863e-03
4.29000e+02,5.70262e-03
4.30000e+02,5.62367e-03
4.31000e+02,5.50922e-03
4.32000e+02,5.40594e-03
4.33000e+02,5.32811e-03
4.34000e+02,5.29643e-03
4.35000e+02,5.23972e-03
4.36000e+02,5.16925e-03
4.37000e+02,5.04465e-03
4.38000e+02,4.96927e-03
4.39000e+02,4.94238e-03
4.40000e+02,5.00451e-03
4.41000e+02,5.09152e-03
4.42000e+02,5.15555e-03
4.43000e+02,5.19907e-03
4.44000e+02,5.17933e-03
4.45000e+02,5.13211e-03
4.46000e+02,5.09831e-03
4.47000e+02,5.10489e-03
4.48000e+02,5.16130e-03
4.49000e+02,5.25124e-03
4.50000e+02,5.30952e-03
4.51000e+02,5.34902e-03
4.52000e+02,5.39581e-03
4.53000e+02,5.46558e-03
4.54000e+02,5.52253e-03
4.55000e+02,5.58384e-03
4.56000e+02,5.61576e-03
4.57000e+02,5.61551e-03
4.58000e+02,5.59574e-03
4.59000e+02,5.56771e-03
4.60000e+02,5.53020e-03
4.61000e+02,5.43422e-03
4.62000e+02,5.31879e-03
4.63000e+02,5.25639e-03
4.64000e+02,5.25180e-03
4.65000e+02,5.24983e-03
4.66000e+02,5.17610e-03
4.67000e+02,5.04864e-03
4.68000e+02,4.94141e-03
4.69000e+02,4.89298e-03
4.70000e+02,4.89738e-03
4.71000e+02,4.89738e-03
4.72000e+02,4.89738e-03
4.73000e+02,4.92161e-03
4.74000e+02,5.02190e-03
4.75000e+02,5.15692e-03
4.76000e+02,5.22322e-03
4.77000e+02,5.20837e-03
4.78000e+02,5.08924e-03
4.79000e+02,4.95336e-03
4.80000e+02,4.85225e-03
4.81000e+02,4.80800e-03
4.82000e+02,4.82025e-03
4.83000e+02,4.84720e-03
4.84000e+02,4.89360e-03
4.85000e+02,4.93315e-03
4.86000e+02,4.96549e-03
4.87000e+02,4.91750e-03
4.88000e+02,4.83713e-03
4.89000e+02,4.69849e-03
4.90000e+02,4.58819e-03
4.91000e+02,4.45787e-03
4.92000e+02,4.39804e-03
4.93000e+02,4.32174e-03
4.94000e+02,4.31290e-03
4.95000e+02,4.27332e-03
4.96000e+02,4.28272e-03
4.97000e+02,4.26181e-03
4.98000e+02,4.26786e-03
4.99000e+02,4.28278e-03
5.00000e+02,4.31166e-03
5.01000e+02,4.34644e-03
5.02000e+02,4.36553e-03
5.03000e+02,4.36553e-03
5.04000e+02,4.38495e-03
5.05000e+02,4.40137e-03
5.06000e+02,4.41144e-03
5.07000e+02,4.44335e-03
5.08000e+02,4.51658e-03
5.09000e+02,4.66719e-03
5.10000e+02,4.82209e-03
5.11000e+02,4.97742e-03
5.12000e+02,5.10805e-03
5.13000e+02,5.23507e-03
5.14000e+02,5.33747e-03
5.15000e+02,5.40275e-03
5.16000e+02,5.44163e-03
5.17000e+02,5.44163e-03
5.18000e+02,5.41686e-03
5.19000e+02,5.31548e-03
5.20000e+02,5.23289e-03
5.21000e+02,5.19442e-03
5.22000e+02,5.21319e-03
5.23000e+02,5.25026e-03
5.24000e+02,5.30076e-03
5.25000e+02,5.29525e-03
5.26000e+02,5.28638e-03
5.27000e+02,5.28638e-03
5.28000e+02,5.28638e-03
5.29000e+02,5.28638e-03
5.30000e+02,5.28864e-03
5.31000e+02,5.34915e-03
5.32000e+02,5.45512e-03
5.33000e+02,5.59956e-03
5.34000e+02,5.75822e-03
5.35000e+02,5.95400e-03
5.36000e+02,6.24806e-03
5.37000e+02,6.55340e-03
5.38000e+02,6.88964e-03
5.39000e+02,7.08747e-03
5.40000e+02,7.21719e-03
5.41000e+02,7.27174e-03
5.42000e+02,7.30737e-03
5.43000e+02,7.33747e-03
5.44000e+02,7.39514e-03
5.45000e+02,7.48493e-03
5.46000e+02,7.57363e-03
5.47000e+02,7.68252e-03
5.48000e+02,7.75997e-03
5.49000e+02,7.76073e-03
5.50000e+02,7.69135e-03
5.51000e+02,7.62728e-03
5.52000e+02,7.61799e-03
5.53000e+02,7.63285e-03
5.54000e+02,7.72798e-03
5.55000e+02,7.88756e-03
5.56000e+02,8.11880e-03
5.57000e+02,8.29399e-03
5.58000e+02,8.39168e-03
5.59000e+02,8.38982e-03
5.60000e+02,8.36480e-03
5.61000e+02,8.37136e-03
5.62000e+02,8.48383e-03
5.63000e+02,8.65140e-03
5.64000e+02,8.83458e-03
5.65000e+02,8.87893e-03
5.66000e+02,8.86504e-03
5.67000e+02,8.81996e-03
5.68000e+02,8.76889e-03
5.69000e+02,8.73499e-03
5.70000e+02,8.73499e-03
5.71000e+02,8.75188e-03
5.72000e+02,8.74324e-03
5.73000e+02,8.68986e-03
5.74000e+02,8.61405e-03
5.75000e+02,8.54200e-03
5.76000e+02,8.57913e-03
5.77000e+02,8.74829e-03
5.78000e+02,9.04050e-03
5.79000e+02,9.31273e-03
5.80000e+02,9.50952e-03
5.81000e+02,9.62303e-03
5.82000e+02,9.69857e-03
5.83000e+02,9.72239e-03
5.84000e+02,9.72641e-03
5.85000e+02,9.68644e-03
5.86000e+02,9.67127e-03
5.87000e+02,9.68985e-03
5.88000e+02,9.73157e-03
5.89000e+02,9.77419e-03
5.90000e+02,9.78501e-03
5.91000e+02,9.81691e-03
5.92000e+02,9.91074e-03
5.93000e+02,1.00838e-02
5.94000e+02,1.02895e-02
5.95000e+02,1.04626e-02
5.96000e+02,1.06023e-02
5.97000e+02,1.07223e-02
5.98000e+02,1.08122e-02
5.99000e+02,1.07988e-02
6.00000e+02,1.07054e-02
6.01000e+02,1.05701e-02
6.02000e+02,1.05100e-02
6.03000e+02,1.04580e-02
6.04000e+02,1.04151e-02
6.05000e+02,1.03189e-02
6.06000e+02,1.02515e-02
6.07000e+02,1.02126e-02
6.08000e+02,1.02140e-02
6.09000e+02,1.02140e-02
6.10000e+02,1.02140e-02
6.11000e+02,1.01667e-02
6.12000e+02,1.01014e-02
6.13000e+02,1.00525e-02
6.14000e+02,1.00095e-02
6.15000e+02,9.96975e-03
6.16000e+02,9.95596e-03
6.17000e+02,9.95596e-03
6.18000e+02,9.96190e-03
6.19000e+02,1.00261e-02
6.20000e+02,1.01051e-02
6.21000e+02,1.01787e-02
6.22000e+02,1.01608e-02
6.23000e+02,1.00880e-02
6.24000e+02,9.95525e-03
6.25000e+02,9.80448e-03
6.26000e+02,9.66086e-03
6.27000e+02,9.45227e-03
6.28000e+02,9.19968e-03
6.29000e+02,8.86552e-03
6.30000e+02,8.60392e-03
6.31000e+02,8.37705e-03
6.32000e+02,8.26661e-03
6.33000e+02,8.25721e-03
6.34000e+02,8.41191e-03
6.35000e+02,8.57743e-03
6.36000e+02,8.68460e-03
6.37000e+02,8.68454e-03
6.38000e+02,8.64627e-03
6.39000e+02,8.72070e-03
6.40000e+02,8.88831e-03
6.41000e+02,9.13242e-03
6.42000e+02,9.26041e-03
6.43000e+02,9.31897e-03
6.44000e+02,9.33998e-03
6.45000e+02,9.29153e-03
6.46000e+02,9.20545e-03
6.47000e+02,9.06281e-03
6.48000e+02,8.97300e-03
6.49000e+02,8.88979e-03
6.50000e+02,8.82424e-03
6.51000e+02,8.77935e-03
6.52000e+02,8.78365e-03
6.53000e+02,8.73145e-03
6.54000e+02,8.65942e-03
6.55000e+02,8.55110e-03
6.56000e+02,8.56030e-03
6.57000e+02,8.58621e-03
6.58000e+02,8.65327e-03
6.59000e+02,8.72922e-03
6.60000e+02,8.79616e-03
6.61000e+02,8.89126e-03
6.62000e+02,9.00131e-03
6.63000e+02,9.18243e-03
6.64000e+02,9.38964e-03
6.65000e+02,9.57867e-03
6.66000e+02,9.71995e-03
6.67000e+02,9.78630e-03
6.68000e+02,9.76012e-03
6.69000e+02,9.64927e-03
6.70000e+02,9.50451e-03
6.71000e+02,9.39632e-03
6.72000e+02,9.31799e-03
6.73000e+02,9.24965e-03
6.74000e+02,9.19983e-03
6.75000e+02,9.19342e-03
6.76000e+02,9.19342e-03
6.77000e+02,9.17912e-03
6.78000e+02,9.12122e-03
6.79000e+02,9.04528e-03
6.80000e+02,8.94435e-03
6.81000e+02,8.80303e-03
6.82000e+02,8.66211e-03
6.83000e+02,8.52105e-03
6.84000e+02,8.38241e-03
6.85000e+02,8.30151e-03
6.86000e+02,8.24064e-03
6.87000e+02,8.18045e-03
6.88000e+02,8.02445e-03
6.89000e+02,7.84924e-03
6.90000e+02,7.73737e-03
6.91000e+02,7.62582e-03
6.92000e+02,7.52461e-03
6.93000e+02,7.36242e-03
6.94000e+02,7.26050e-03
6.95000e+02,7.26874e-03
6.96000e+02,7.37885e-03
6.97000e+02,7.51798e-03
6.98000e+02,7.67442e-03
6.99000e+02,7.85497e-03
7.00000e+02,7.98117e-03
7.01000e+02,8.04766e-03
7.02000e+02,8.03068e-03
7.03000e+02,8.00106e-03
7.04000e+02,7.93082e-03
7.05000e+02,7.88773e-03
7.06000e+02,7.84524e-03
7.07000e+02,7.88067e-03
7.08000e+02,7.98551e-03
7.09000e+02,8.12781e-03
7.10000e+02,8.20389e-03
7.11000e+02,8.18493e-03
7.12000e+02,8.07763e-03
7.13000e+02,7.97297e-03
7.14000e+02,7.86153e-03
7.15000e+02,7.82497e-03
7.16000e+02,7.81422e-03
7.17000e+02,7.83884e-03
7.18000e+02,7.93241e-03
7.19000e+02,8.09815e-03
7.20000e+02,8.30326e-03
7.21000e+02,8.45843e-03
7.22000e+02,8.53057e-03
7.23000e+02,8.51351e-03
7.24000e+02,8.37334e-03
7.25000e+02,8.11376e-03
7.26000e+02,7.83052e-03
7.27000e+02,7.63088e-03
7.28000e+02,7.48602e-03
7.29000e+02,7.34649e-03
7.30000e+02,7.12933e-03
7.31000e+02,6.93749e-03
7.32000e+02,6.75343e-03
7.33000e+02,6.68158e-03
7.34000e+02,6.69277e-03
7.35000e+02,6.79668e-03
7.36000e+02,6.91655e-03
7.37000e+02,6.94568e-03
7.38000e+02,6.91048e-03
7.39000e+02,6.83394e-03
7.40000e+02,6.81088e-03
7.41000e+02,6.84274e-03
7.42000e+02,6.84810e-03
7.43000e+02,6.80477e-03
7.44000e+02,6.74450e-03
7.45000e+02,6.66570e-03
7.46000e+02,6.60121e-03
7.47000e+02,6.49599e-03
7.48000e+02,6.39093e-03
7.49000e+02,6.28899e-03
7.50000e+02,6.23040e-03
7.51000e+02,6.18838e-03
7.52000e+02,6.15078e-03
7.53000e+02,6.05791e-03
7.54000e+02,5.89109e-03
7.55000e+02,5.68674e-03
7.56000e+02,5.53681e-03
7.57000e+02,5.46759e-03
7.58000e+02,5.38272e-03
7.59000e+02,5.25355e-03
7.60000e+02,5.07620e-03
7.61000e+02,4.93710e-03
7.62000e+02,4.84896e-03
7.63000e+02,4.83118e-03
7.64000e+02,4.89324e-03
7.65000e+02,4.97628e-03
7.66000e+02,5.08781e-03
7.67000e+02,5.21457e-03
7.68000e+02,5.34237e-03
7.69000e+02,5.45667e-03
7.70000e+02,5.54973e-03
7.71000e+02,5.61163e-03
7.72000e+02,5.71450e-03
7.73000e+02,5.79312e-03
7.74000e+02,5.86319e-03
7.75000e+02,5.83062e-03
7.76000e+02,5.70589e-03
7.77000e+02,5.56465e-03
7.78000e+02,5.45540e-03
7.79000e+02,5.44400e-03
7.80000e+02,5.47720e-03
7.81000e+02,5.53415e-03
7.82000e+02,5.62475e-03
7.83000e+02,5.71021e-03
7.84000e+02,5.73239e-03
7.85000e+02,5.70740e-03
7.86000e+02,5.59929e-03
7.87000e+02,5.51181e-03
7.88000e+02,5.41894e-03
7.89000e+02,5.32633e-03
7.90000e+02,5.19661e-03
7.91000e+02,5.12244e-03
7.92000e+02,5.05713e-03
7.93000e+02,5.05713e-03
7.94000e+02,5.05713e-03
7.95000e+02,5.10667e-03
7.96000e+02,5.17500e-03
7.97000e+02,5.21735e-03
7.98000e+02,5.20639e-03
7.99000e+02,5.10791e-03
8.00000e+02,4.99991e-03
8.01000e+02,4.87959e-03
8.02000e+02,4.84550e-03
8.03000e+02,4.84550e-03
8.04000e+02,4.84550e-03
8.05000e+02,4.84621e-03
8.06000e+02,4.89882e-03
8.07000e+02,4.99135e-03
8.08000e+02,5.00235e-03
8.09000e+02,4.85589e-03
8.10000e+02,4.63740e-03
8.11000e+02,4.41306e-03
8.12000e+02,4.24619e-03
8.13000e+02,4.15429e-03
8.14000e+02,4.13606e-03
8.15000e+02,4.17410e-03
8.16000e+02,4.24604e-03
8.17000e+02,4.34523e-03
8.18000e+02,4.44650e-03
8.19000e+02,4.57114e-03
8.20000e+02,4.65442e-03
8.21000e+02,4.70224e-03
8.22000e+02,4.69946e-03
8.23000e+02,4.68410e-03
8.24000e+02,4.65707e-03
8.25000e+02,4.61062e-03
8.26000e+02,4.48867e-03
8.27000e+02,4.32795e-03
8.28000e+02,4.21315e-03
8.29000e+02,4.16288e-03
8.30000e+02,4.13444e-03
8.31000e+02,4.14065e-03
8.32000e+02,4.18356e-03
8.33000e+02,4.30710e-03
8.34000e+02,4.39875e-03
8.35000e+02,4.44225e-03
8.36000e+02,4.42552e-03
8.37000e+02,4.39374e-03
8.38000e+02,4.35298e-03
8.39000e+02,4.34686e-03
8.40000e+02,4.37786e-03
8.41000e+02,4.38968e-03
8.42000e+02,4.38666e-03
8.43000e+02,4.34662e-03
8.44000e+02,4.35864e-03
8.45000e+02,4.44349e-03
8.46000e+02,4.51129e-03
8.47000e+02,4.51381e-03
8.48000e+02,4.42454e-03
8.49000e+02,4.32708e-03
8.50000e+02,4.25386e-03
8.51000e+02,4.24293e-03
8.52000e+02,4.24293e-03
8.53000e+02,4.26170e-03
8.54000e+02,4.23132e-03
8.55000e+02,4.20827e-03
8.56000e+02,4.12920e-03
8.57000e+02,4.04365e-03
8.58000e+02,3.91689e-03
8.59000e+02,3.79922e-03
8.60000e+02,3.67288e-03
8.61000e+02,3.58106e-03
8.62000e+02,3.54934e-03
8.63000e+02,3.61342e-03
8.64000e+02,3.75854e-03
8.65000e+02,3.92350e-03
8.66000e+02,4.14748e-03
8.67000e+02,4.39476e-03
8.68000e+02,4.54519e-03
8.69000e+02,4.61600e-03
8.70000e+02,4.59115e-03
8.71000e+02,4.54665e-03
8.72000e+02,4.47909e-03
8.73000e+02,4.47494e-03
8.74000e+02,4.49762e-03
8.75000e+02,4.56803e-03
8.76000e+02,4.62027e-03
8.77000e+02,4.70332e-03
8.78000e+02,4.85296e-03
8.79000e+02,5.04373e-03
8.80000e+02,5.18598e-03
8.81000e+02,5.25572e-03
8.82000e+02,5.26149e-03
8.83000e+02,5.33017e-03
8.84000e+02,5.40405e-03
8.85000e+02,5.50943e-03
8.86000e+02,5.53534e-03
8.87000e+02,5.53850e-03
8.88000e+02,5.55925e-03
8.89000e+02,5.67014e-03
8.90000e+02,5.80656e-03
8.91000e+02,5.92476e-03
8.92000e+02,6.01370e-03
8.93000e+02,6.10060e-03
8.94000e+02,6.20767e-03
8.95000e+02,6.29396e-03
8.96000e+02,6.34960e-03
8.97000e+02,6.32074e-03
8.98000e+02,6.24344e-03
8.99000e+02,6.21656e-03
9.00000e+02,6.23511e-03
9.01000e+02,6.26748e-03
9.02000e+02,6.26902e-03
9.03000e+02,6.33056e-03
9.04000e+02,6.41883e-03
9.05000e+02,6.53741e-03
9.06000e+02,6.61028e-03
9.07000e+02,6.62847e-03
9.08000e+02,6.55832e-03
9.09000e+02,6.45173e-03
9.10000e+02,6.34481e-03
9.11000e+02,6.29024e-03
9.12000e+02,6.24242e-03
9.13000e+02,6.19805e-03
9.14000e+02,6.17503e-03
9.15000e+02,6.26030e-03
9.16000e+02,6.40474e-03
9.17000e+02,6.54927e-03
9.18000e+02,6.65070e-03
9.19000e+02,6.71166e-03
9.20000e+02,6.76237e-03
9.21000e+02,6.82917e-03
9.22000e+02,6.85158e-03
9.23000e+02,6.80509e-03
9.24000e+02,6.68070e-03
9.25000e+02,6.60048e-03
9.26000e+02,6.55859e-03
9.27000e+02,6.57812e-03
9.28000e+02,6.59301e-03
9.29000e+02,6.62882e-03
9.30000e+02,6.61562e-03
9.31000e+02,6.56094e-03
9.32000e+02,6.50935e-03
9.33000e+02,6.49448e-03
9.34000e+02,6.49226e-03
9.35000e+02,6.52128e-03
9.36000e+02,6.54520e-03
9.37000e+02,6.62421e-03
9.38000e+02,6.76575e-03
9.39000e+02,6.94382e-03
9.40000e+02,7.09971e-03
9.41000e+02,7.20707e-03
9.42000e+02,7.24974e-03
9.43000e+02,7.27872e-03
9.44000e+02,7.25982e-03
9.45000e+02,7.28794e-03
9.46000e+02,7.29171e-03
9.47000e+02,7.37042e-03
9.48000e+02,7.43405e-03
9.49000e+02,7.55227e-03
9.50000e+02,7.62674e-03
9.51000e+02,7.66359e-03
9.52000e+02,7.64912e-03
9.53000e+02,7.59553e-03
9.54000e+02,7.45491e-03
9.55000e+02,7.28229e-03
9.56000e+02,7.07046e-03
9.57000e+02,6.83661e-03
9.58000e+02,6.58933e-03
9.59000e+02,6.43890e-03
9.60000e+02,6.36809e-03
9.61000e+02,6.36809e-03
9.62000e+02,6.37481e-03
9.63000e+02,6.37237e-03
9.64000e+02,6.31613e-03
9.65000e+02,6.23921e-03
9.66000e+02,6.20156e-03
9.67000e+02,6.25748e-03
9.68000e+02,6.33746e-03
9.69000e+02,6.33337e-03
9.70000e+02,6.23988e-03
9.71000e+02,6.12113e-03
9.72000e+02,6.02960e-03
9.73000e+02,6.01076e-03
9.74000e+02,5.98450e-03
9.75000e+02,5.98908e-03
9.76000e+02,5.95086e-03
9.77000e+02,5.95812e-03
9.78000e+02,5.95389e-03
9.79000e+02,5.96031e-03
9.80000e+02,5.86449e-03
9.81000e+02,5.75589e-03
9.82000e+02,5.63709e-03
9.83000e+02,5.59919e-03
9.84000e+02,5.59035e-03
9.85000e+02,5.60865e-03
9.86000e+02,5.60183e-03
9.87000e+02,5.55671e-03
9.88000e+02,5.49378e-03
9.89000e+02,5.44330e-03
9.90000e+02,5.42795e-03
9.91000e+02,5.43701e-03
9.92000e+02,5.44070e-03
9.93000e+02,5.44505e-03
9.94000e+02,5.40824e-03
9.95000e+02,5.35626e-03
9.96000e+02,5.25748e-03
9.97000e+02,5.21703e-03
9.98000e+02,5.17993e-03
9.99000e+02,5.22861e-03
1.00000e+03,5.24639e-03
1.00100e+03,5.29370e-03
1.00200e+03,5.27780e-03
1.00300e+03,5.27780e-03
1.00400e+03,5.27780e-03
1.00500e+03,5.29822e-03
1.00600e+03,5.27960e-03
1.00700e+03,5.21987e-03
1.00800e+03,5.15852e-03
1.00900e+03,5.09217e-03
1.01000e+03,5.03121e-03
1.01100e+03,4.97737e-03
1.01200e+03,4.92092e-03
1.01300e+03,4.87316e-03
1.01400e+03,4.82834e-03
1.01500e+03,4.81944e-03
1.01600e+03,4.82850e-03
1.01700e+03,4.90139e-03
1.01800e+03,4.96208e-03
1.01900e+03,4.99314e-03
1.02000e+03,5.00244e-03
1.02100e+03,5.08905e-03
1.02200e+03,5.24225e-03
1.02300e+03,5.39194e-03
1.02400e+03,5.48110e-03
1.02500e+03,5.49808e-03
1.02600e+03,5.42298e-03
1.02700e+03,5.29990e-03
1.02800e+03,5.15128e-03
1.02900e+03,4.99353e-03
1.03000e+03,4.90430e-03
1.03100e+03,4.84660e-03
1.03200e+03,4.82177e-03
1.03300e+03,4.82451e-03
1.03400e+03,4.82740e-03
1.03500e+03,4.83247e-03
1.03600e+03,4.85146e-03
1.03700e+03,4.91427e-03
1.03800e+03,4.98803e-03
1.03900e+03,5.04266e-03
1.04000e+03,5.04959e-03
1.04100e+03,5.11976e-03
1.04200e+03,5.25160e-03
1.04300e+03,5.40841e-03
1.04400e+03,5.44825e-03
1.04500e+03,5.42139e-03
1.04600e+03,5.36156e-03
1.04700e+03,5.42382e-03
1.04800e+03,5.54411e-03
1.04900e+03,5.69045e-03
1.05000e+03,5.82031e-03
1.05100e+03,5.93222e-03
1.05200e+03,6.03705e-03
1.05300e+03,6.13193e-03
1.05400e+03,6.22895e-03
1.05500e+03,6.28470e-03
1.05600e+03,6.33304e-03
1.05700e+03,6.35833e-03
1.05800e+03,6.31196e-03
1.05900e+03,6.16337e-03
1.06000e+03,5.98247e-03
1.06100e+03,5.83892e-03
1.06200e+03,5.75160e-03
1.06300e+03,5.72501e-03
1.06400e+03,5.70924e-03
1.06500e+03,5.73420e-03
1.06600e+03,5.72308e-03
1.06700e+03,5.69167e-03
1.06800e+03,5.63831e-03
1.06900e+03,5.59585e-03
1.07000e+03,5.58098e-03
1.07100e+03,5.57816e-03
1.07200e+03,5.55809e-03
1.07300e+03,5.51846e-03
1.07400e+03,5.44740e-03
1.07500e+03,5.36087e-03
1.07600e+03,5.28155e-03
1.07700e+03,5.23338e-03
1.07800e+03,5.24797e-03
1.07900e+03,5.27494e-03
1.08000e+03,5.30127e-03
1.08100e+03,5.28212e-03
1.08200e+03,5.29528e-03
1.08300e+03,5.35603e-03
1.08400e+03,5.43972e-03
1.08500e+03,5.50548e-03
1.08600e+03,5.53299e-03
1.08700e+03,5.59087e-03
1.08800e+03,5.63349e-03
1.08900e+03,5.69632e-03
1.09000e+03,5.68296e-03
1.09100e+03,5.63556e-03
1.09200e+03,5.56006e-03
1.09300e+03,5.54724e-03
1.09400e+03,5.54724e-03
1.09500e+03,5.54724e-03
1.09600e+03,5.50646e-03
1.09700e+03,5.41071e-03
1.09800e+03,5.31156e-03
1.09900e+03,5.25619e-03
1.10000e+03,5.27971e-03
1.10100e+03,5.31594e-03
1.10200e+03,5.31594e-03
1.10300e+03,5.30559e-03
1.10400e+03,5.31030e-03
1.10500e+03,5.35571e-03
1.10600e+03,5.44413e-03
1.10700e+03,5.48432e-03
1.10800e+03,5.48687e-03
1.10900e+03,5.46045e-03
1.11000e+03,5.45775e-03
1.11100e+03,5.44613e-03
1.11200e+03,5.37916e-03
1.11300e+03,5.28528e-03
1.11400e+03,5.19442e-03
1.11500e+03,5.16035e-03
1.11600e+03,5.21516e-03
1.11700e+03,5.28719e-03
1.11800e+03,5.37671e-03
1.11900e+03,5.41469e-03
1.12000e+03,5.43081e-03
1.12100e+03,5.34198e-03
1.12200e+03,5.24617e-03
1.12300e+03,5.16364e-03
1.12400e+03,5.13135e-03
1.12500e+03,5.13685e-03
1.12600e+03,5.20231e-03
1.12700e+03,5.20192e-03
1.12800e+03,5.10607e-03
1.12900e+03,4.94963e-03
1.13000e+03,4.80540e-03
1.13100e+03,4.68147e-03
1.13200e+03,4.56431e-03
1.13300e+03,4.47708e-03
1.13400e+03,4.43203e-03
1.13500e+03,4.52424e-03
1.13600e+03,4.64908e-03
1.13700e+03,4.75668e-03
1.13800e+03,4.73603e-03
1.13900e+03,4.70219e-03
1.14000e+03,4.65877e-03
1.14100e+03,4.61615e-03
1.14200e+03,4.54007e-03
1.14300e+03,4.44227e-03
1.14400e+03,4.32471e-03
1.14500e+03,4.19867e-03
1.14600e+03,4.09311e-03
1.14700e+03,4.03446e-03
1.14800e+03,3.97041e-03
1.14900e+03,3.92042e-03
1.15000e+03,3.90599e-03
1.15100e+03,3.92630e-03
1.15200e+03,3.99093e-03
1.15300e+03,4.05528e-03
1.15400e+03,4.12623e-03
1.15500e+03,4.19602e-03
1.15600e+03,4.23532e-03
1.15700e+03,4.24619e-03
1.15800e+03,4.23561e-03
1.15900e+03,4.20625e-03
1.16000e+03,4.17680e-03
1.16100e+03,4.13003e-03
1.16200e+03,4.10853e-03
1.16300e+03,4.10292e-03
1.16400e+03,4.10292e-03
1.16500e+03,4.14176e-03
1.16600e+03,4.22418e-03
1.16700e+03,4.32688e-03
1.16800e+03,4.42987e-03
1.16900e+03,4.51046e-03
1.17000e+03,4.58378e-03
1.17100e+03,4.65560e-03
1.17200e+03,4.71737e-03
1.17300e+03,4.72988e-03
1.17400e+03,4.66438e-03
1.17500e+03,4.58494e-03
1.17600e+03,4.52265e-03
1.17700e+03,4.53457e-03
1.17800e+03,4.51968e-03
1.17900e+03,4.50957e-03
1.18000e+03,4.45041e-03
1.18100e+03,4.45805e-03
1.18200e+03,4.47360e-03
1.18300e+03,4.50807e-03
1.18400e+03,4.50807e-03
1.18500e+03,4.51698e-03
1.18600e+03,4.54769e-03
1.18700e+03,4.62157e-03
1.18800e+03,4.72730e-03
1.18900e+03,4.81100e-03
1.19000e+03,4.86207e-03
1.19100e+03,4.87255e-03
1.19200e+03,4.89182e-03
1.19300e+03,4.92501e-03
1.19400e+03,4.93346e-03
1.19500e+03,4.91648e-03
1.19600e+03,4.86946e-03
1.19700e+03,4.79157e-03
1.19800e+03,4.74309e-03
1.19900e+03,4.68747e-03
1.20000e+03,4.64982e-03
1.20100e+03,4.66044e-03
1.20200e+03,4.68480e-03
1.20300e+03,4.69716e-03
1.20400e+03,4.64598e-03
1.20500e+03,4.59109e-03
1.20600e+03,4.57219e-03
1.20700e+03,4.53821e-03
1.20800e+03,4.51265e-03
1.20900e+03,4.42746e-03
1.21000e+03,4.38431e-03
1.21100e+03,4.34277e-03
1.21200e+03,4.34277e-03
1.21300e+03,4.35530e-03
1.21400e+03,4.38173e-03
1.21500e+03,4.39508e-03
1.21600e+03,4.36865e-03
1.21700e+03,4.31565e-03
1.21800e+03,4.28906e-03
1.21900e+03,4.31941e-03
1.22000e+03,4.38792e-03
1.22100e+03,4.45453e-03
1.22200e+03,4.47215e-03
1.22300e+03,4.43455e-03
1.22400e+03,4.35308e-03
1.22500e+03,4.25408e-03
1.22600e+03,4.11849e-03
1.22700e+03,4.05436e-03
1.22800e+03,4.03086e-03
1.22900e+03,4.08307e-03
1.23000e+03,4.08111e-03
1.23100e+03,4.06376e-03
1.23200e+03,4.02843e-03
1.23300e+03,4.09036e-03
1.23400e+03,4.20680e-03
1.23500e+03,4.35863e-03
1.23600e+03,4.45828e-03
1.23700e+03,4.50761e-03
1.23800e+03,4.49590e-03
1.23900e+03,4.50549e-03
1.24000e+03,4.53564e-03
1.24100e+03,4.61498e-03
1.24200e+03,4.69125e-03
1.24300e+03,4.74309e-03
1.24400e+03,4.78512e-03
1.24500e+03,4.79606e-03
1.24600e+03,4.76865e-03
1.24700e+03,4.71688e-03
1.24800e+03,4.67291e-03
1.24900e+03,4.67418e-03
1.25000e+03,4.67418e-03
1.25100e+03,4.67418e-03
1.25200e+03,4.66599e-03
1.25300e+03,4.68380e-03
1.25400e+03,4.70046e-03
1.25500e+03,4.70936e-03
1.25600e+03,4.67052e-03
1.25700e+03,4.58870e-03
1.25800e+03,4.49650e-03
1.25900e+03,4.43276e-03
1.26000e+03,4.37806e-03
1.26100e+03,4.31612e-03
1.26200e+03,4.21158e-03
1.26300e+03,4.12370e-03
1.26400e+03,4.06907e-03
1.26500e+03,4.10261e-03
1.26600e+03,4.14959e-03
1.26700e+03,4.19054e-03
1.26800e+03,4.16881e-03
1.26900e+03,4.11521e-03
1.27000e+03,4.01225e-03
1.27100e+03,3.95205e-03
1.27200e+03,3.87033e-03
1.27300e+03,3.84733e-03
1.27400e+03,3.85066e-03
1.27500e+03,3.91009e-03
1.27600e+03,3.94911e-03
1.27700e+03,3.97335e-03
1.27800e+03,3.96022e-03
1.27900e+03,3.94812e-03
1.28000e+03,3.93761e-03
1.28100e+03,3.92297e-03
1.28200e+03,3.91489e-03
1.28300e+03,3.90532e-03
1.28400e+03,3.90635e-03
1.28500e+03,3.92120e-03
1.28600e+03,3.96405e-03
1.28700e+03,4.03714e-03
1.28800e+03,4.12387e-03
1.28900e+03,4.19732e-03
1.29000e+03,4.23673e-03
1.29100e+03,4.24863e-03
1.29200e+03,4.19989e-03
1.29300e+03,4.13183e-03
1.29400e+03,4.07326e-03
1.29500e+03,4.08206e-03
1.29600e+03,4.12657e-03
1.29700e+03,4.10445e-03
1.29800e+03,4.06376e-03
1.29900e+03,4.01729e-03
1.30000e+03,4.02299e-03
1.30100e+03,4.02299e-03
1.30200e+03,4.03098e-03
1.30300e+03,4.03353e-03
1.30400e+03,4.03359e-03
1.30500e+03,4.01546e-03
1.30600e+03,3.99245e-03
1.30700e+03,4.00544e-03
1.30800e+03,4.01039e-03
1.30900e+03,3.99316e-03
1.31000e+03,3.94585e-03
1.31100e+03,3.87734e-03
1.31200e+03,3.81073e-03
1.31300e+03,3.79474e-03
1.31400e+03,3.80958e-03
1.31500e+03,3.85306e-03
1.31600e+03,3.87316e-03
1.31700e+03,3.88920e-03
1.31800e+03,3.83426e-03
1.31900e+03,3.75069e-03
1.32000e+03,3.62080e-03
1.32100e+03,3.52522e-03
1.32200e+03,3.43965e-03
1.32300e+03,3.39478e-03
1.32400e+03,3.33077e-03
1.32500e+03,3.22597e-03
1.32600e+03,3.10870e-03
1.32700e+03,3.03692e-03
1.32800e+03,3.01837e-03
1.32900e+03,3.02235e-03
1.33000e+03,3.03618e-03
1.33100e+03,3.07875e-03
1.33200e+03,3.08964e-03
1.33300e+03,3.04894e-03
1.33400e+03,2.97519e-03
1.33500e+03,2.95376e-03
1.33600e+03,2.99505e-03
1.33700e+03,3.01992e-03
1.33800e+03,3.04162e-03
1.33900e+03,3.06106e-03
1.34000e+03,3.11385e-03
1.34100e+03,3.16511e-03
1.34200e+03,3.19400e-03
1.34300e+03,3.20704e-03
1.34400e+03,3.17401e-03
1.34500e+03,3.14884e-03
1.34600e+03,3.13994e-03
1.34700e+03,3.14806e-03
1.34800e+03,3.13418e-03
1.34900e+03,3.14015e-03
1.35000e+03,3.16919e-03
1.35100e+03,3.24753e-03
1.35200e+03,3.30189e-03
1.35300e+03,3.37088e-03
1.35400e+03,3.43445e-03
1.35500e+03,3.57021e-03
1.35600e+03,3.66842e-03
1.35700e+03,3.75002e-03
1.35800e+03,3.76934e-03
1.35900e+03,3.79733e-03
1.36000e+03,3.84052e-03
1.36100e+03,3.93025e-03
1.36200e+03,4.03958e-03
1.36300e+03,4.14797e-03
1.36400e+03,4.18767e-03
1.36500e+03,4.14888e-03
1.36600e+03,4.08945e-03
1.36700e+03,4.04152e-03
1.36800e+03,3.98817e-03
1.36900e+03,3.95293e-03
1.37000e+03,3.89851e-03
1.37100e+03,3.85056e-03
1.37200e+03,3.79536e-03
1.37300e+03,3.76083e-03
1.37400e+03,3.73093e-03
1.37500e+03,3.71092e-03
1.37600e+03,3.69710e-03
1.37700e+03,3.66409e-03
1.37800e+03,3.61642e-03
1.37900e+03,3.56757e-03
1.38000e+03,3.53700e-03
1.38100e+03,3.55254e-03
1.38200e+03,3.60495e-03
1.38300e+03,3.68685e-03
1.38400e+03,3.70815e-03
1.38500e+03,3.70815e-03
1.38600e+03,3.68843e-03
1.38700e+03,3.64106e-03
1.38800e+03,3.63254e-03
1.38900e+03,3.63130e-03
1.39000e+03,3.65030e-03
1.39100e+03,3.64027e-03
1.39200e+03,3.64027e-03
1.39300e+03,3.63228e-03
1.39400e+03,3.64418e-03
1.39500e+03,3.64197e-03
1.39600e+03,3.64813e-03
1.39700e+03,3.64309e-03
1.39800e+03,3.63362e-03
1.39900e+03,3.62523e-03
1.40000e+03,3.63671e-03
1.40100e+03,3.65116e-03
1.40200e+03,3.66560e-03
1.40300e+03,3.68005e-03
1.40400e+03,3.69165e-03
1.40500e+03,3.69126e-03
1.40600e+03,3.66223e-03
1.40700e+03,3.64381e-03
1.40800e+03,3.64039e-03
1.40900e+03,3.64908e-03
1.41000e+03,3.66111e-03
1.41100e+03,3.67556e-03
1.41200e+03,3.69001e-03
1.41300e+03,3.70445e-03
1.41400e+03,3.71186e-03
1.41500e+03,3.69255e-03
1.41600e+03,3.68832e-03
1.41700e+03,3.66821e-03
1.41800e+03,3.65478e-03
1.41900e+03,3.63845e-03
1.42000e+03,3.63971e-03
1.42100e+03,3.61456e-03
1.42200e+03,3.54447e-03
1.42300e+03,3.46869e-03
1.42400e+03,3.42726e-03
1.42500e+03,3.39899e-03
1.42600e+03,3.32848e-03
1.42700e+03,3.21586e-03
1.42800e+03,3.13985e-03
1.42900e+03,3.07652e-03
1.43000e+03,3.03729e-03
1.43100e+03,2.97249e-03
1.43200e+03,2.93568e-03
1.43300e+03,2.92124e-03
1.43400e+03,2.92265e-03
1.43500e+03,2.93709e-03
1.43600e+03,2.95154e-03
1.43700e+03,2.96599e-03
1.43800e+03,2.97231e-03
1.43900e+03,2.98259e-03