Pixels #,Intensity (a.u.)
0.00000e+00,1.11822e-02
1.00000e+00,1.11319e-02
2.00000e+00,1.10895e-02
3.00000e+00,1.10120e-02
4.00000e+00,1.09116e-02
5.00000e+00,1.07809e-02
6.00000e+00,1.06448e-02
7.00000e+00,1.05147e-02
8.00000e+00,1.04197e-02
9.00000e+00,1.03311e-02
1.00000e+01,1.02410e-02
1.10000e+01,1.01302e-02
1.20000e+01,1.00568e-02
1.30000e+01,1.00175e-02
1.40000e+01,9.99242e-03
1.50000e+01,9.94142e-03
1.60000e+01,9.83032e-03
1.70000e+01,9.67432e-03
1.80000e+01,9.50661e-03
1.90000e+01,9.33889e-03
2.00000e+01,9.17117e-03
2.10000e+01,9.01431e-03
2.20000e+01,8.89163e-03
2.30000e+01,8.79354e-03
2.40000e+01,8.68871e-03
2.50000e+01,8.55903e-03
2.60000e+01,8.41302e-03
2.70000e+01,8.27774e-03
2.80000e+01,8.13867e-03
2.90000e+01,8.00956e-03
3.00000e+01,7.88089e-03
3.10000e+01,7.77358e-03
3.20000e+01,7.66961e-03
3.30000e+01,7.51226e-03
3.40000e+01,7.34454e-03
3.50000e+01,7.17683e-03
3.60000e+01,7.03209e-03
3.70000e+01,6.93510e-03
3.80000e+01,6.85094e-03
3.90000e+01,6.78802e-03
4.00000e+01,6.70742e-03
4.10000e+01,6.64753e-03
4.20000e+01,6.58543e-03
4.30000e+01,6.50260e-03
4.40000e+01,6.38788e-03
4.50000e+01,6.23608e-03
4.60000e+01,6.10603e-03
4.70000e+01,6.02371e-03
4.80000e+01,6.01916e-03
4.90000e+01,6.05216e-03
5.00000e+01,6.06215e-03
5.10000e+01,6.01788e-03
5.20000e+01,5.93084e-03
5.30000e+01,5.87023e-03
5.40000e+01,5.80444e-03
5.50000e+01,5.72467e-03
5.60000e+01,5.64729e-03
5.70000e+01,5.62150e-03
5.80000e+01,5.64428e-03
5.90000e+01,5.68706e-03
6.00000e+01,5.70193e-03
6.10000e+01,5.65574e-03
6.20000e+01,5.61584e-03
6.30000e+01,5.59749e-03
6.40000e+01,5.59986e-03
6.50000e+01,5.58000e-03
6.60000e+01,5.53102e-03
6.70000e+01,5.47875e-03
6.80000e+01,5.46323e-03
6.90000e+01,5.45434e-03
7.00000e+01,5.47549e-03
7.10000e+01,5.45734e-03
7.20000e+01,5.45353e-03
7.30000e+01,5.43206e-03
7.40000e+01,5.43755e-03
7.50000e+01,5.47698e-03
7.60000e+01,5.49083e-03
7.70000e+01,5.45547e-03
7.80000e+01,5.36516e-03
7.90000e+01,5.31243e-03
8.00000e+01,5.27515e-03
8.10000e+01,5.18252e-03
8.20000e+01,5.02717e-03
8.30000e+01,4.86492e-03
8.40000e+01,4.79405e-03
8.50000e+01,4.77471e-03
8.60000e+01,4.77348e-03
8.70000e+01,4.78983e-03
8.80000e+01,4.87398e-03
8.90000e+01,4.99893e-03
9.00000e+01,5.08453e-03
9.10000e+01,5.06214e-03
9.20000e+01,4.98588e-03
9.30000e+01,4.90488e-03
9.40000e+01,4.93182e-03
9.50000e+01,4.99705e-03
9.60000e+01,5.09386e-03
9.70000e+01,5.13720e-03
9.80000e+01,5.19247e-03
9.90000e+01,5.22741e-03
1.00000e+02,5.29023e-03
1.01000e+02,5.32456e-03
1.02000e+02,5.34858e-03
1.03000e+02,5.29132e-03
1.04000e+02,5.21066e-03
1.05000e+02,5.12372e-03
1.06000e+02,5.09166e-03
1.07000e+02,5.10266e-03
1.08000e+02,5.14962e-03
1.09000e+02,5.17345e-03
1.10000e+02,5.18609e-03
1.11000e+02,5.18609e-03
1.12000e+02,5.18640e-03
1.13000e+02,5.16209e-03
1.14000e+02,5.16523e-03
1.15000e+02,5.19432e-03
1.16000e+02,5.27267e-03
1.17000e+02,5.38306e-03
1.18000e+02,5.45408e-03
1.19000e+02,5.49345e-03
1.20000e+02,5.49452e-03
1.21000e+02,5.50992e-03
1.22000e+02,5.52743e-03
1.23000e+02,5.55938e-03
1.24000e+02,5.65869e-03
1.25000e+02,5.76561e-03
1.26000e+02,5.87903e-03
1.27000e+02,5.99083e-03
1.28000e+02,6.06190e-03
1.29000e+02,6.11402e-03
1.30000e+02,6.08073e-03
1.31000e+02,6.04533e-03
1.32000e+02,5.96227e-03
1.33000e+02,5.90832e-03
1.34000e+02,5.86038e-03
1.35000e+02,5.83582e-03
1.36000e+02,5.83267e-03
1.37000e+02,5.82502e-03
1.38000e+02,5.79993e-03
1.39000e+02,5.69850e-03
1.40000e+02,5.59923e-03
1.41000e+02,5.49947e-03
1.42000e+02,5.43746e-03
1.43000e+02,5.39124e-03
1.44000e+02,5.38090e-03
1.45000e+02,5.36945e-03
1.46000e+02,5.39243e-03
1.47000e+02,5.40219e-03
1.48000e+02,5.43933e-03
1.49000e+02,5.45613e-03
1.50000e+02,5.44944e-03
1.51000e+02,5.39502e-03
1.52000e+02,5.37490e-03
1.53000e+02,5.36132e-03
1.54000e+02,5.35831e-03
1.55000e+02,5.36337e-03
1.56000e+02,5.40677e-03
1.57000e+02,5.51406e-03
1.58000e+02,5.65718e-03
1.59000e+02,5.78126e-03
1.60000e+02,5.89980e-03
1.61000e+02,5.95487e-03
1.62000e+02,6.00521e-03
1.63000e+02,6.03176e-03
1.64000e+02,6.10061e-03
1.65000e+02,6.16151e-03
1.66000e+02,6.20424e-03
1.67000e+02,6.23256e-03
1.68000e+02,6.31250e-03
1.69000e+02,6.42627e-03
1.70000e+02,6.53563e-03
1.71000e+02,6.57250e-03
1.72000e+02,6.61336e-03
1.73000e+02,6.67064e-03
1.74000e+02,6.77290e-03
1.75000e+02,6.84089e-03
1.76000e+02,6.90096e-03
1.77000e+02,6.96687e-03
1.78000e+02,7.02454e-03
1.79000e+02,7.00557e-03
1.80000e+02,6.92647e-03
1.81000e+02,6.83465e-03
1.82000e+02,6.81753e-03
1.83000e+02,6.83214e-03
1.84000e+02,6.87862e-03
1.85000e+02,6.89355e-03
1.86000e+02,6.89867e-03
1.87000e+02,6.87345e-03
1.88000e+02,6.86718e-03
1.89000e+02,6.86875e-03
1.90000e+02,6.90215e-03
1.91000e+02,6.91208e-03
1.92000e+02,6.95000e-03
1.93000e+02,7.01270e-03
1.94000e+02,7.15475e-03
1.95000e+02,7.28312e-03
1.96000e+02,7.36241e-03
1.97000e+02,7.31617e-03
1.98000e+02,7.24857e-03
1.99000e+02,7.18988e-03
2.00000e+02,7.17885e-03
2.01000e+02,7.20757e-03
2.02000e+02,7.26226e-03
2.03000e+02,7.36064e-03
2.04000e+02,7.46082e-03
2.05000e+02,7.53333e-03
2.06000e+02,7.56840e-03
2.07000e+02,7.59134e-03
2.08000e+02,7.61606e-03
2.09000e+02,7.70902e-03
2.10000e+02,7.82133e-03
2.11000e+02,7.91999e-03
2.12000e+02,7.93809e-03
2.13000e+02,7.93679e-03
2.14000e+02,7.92763e-03
2.15000e+02,7.91941e-03
2.16000e+02,7.92062e-03
2.17000e+02,7.91873e-03
2.18000e+02,7.91598e-03
2.19000e+02,7.91687e-03
2.20000e+02,7.92688e-03
2.21000e+02,7.95110e-03
2.22000e+02,7.95379e-03
2.23000e+02,7.92911e-03
2.24000e+02,7.88877e-03
2.25000e+02,7.86671e-03
2.26000e+02,7.87506e-03
2.27000e+02,7.90569e-03
2.28000e+02,7.93438e-03
2.29000e+02,8.00860e-03
2.30000e+02,8.11737e-03
2.31000e+02,8.22338e-03
2.32000e+02,8.30297e-03
2.33000e+02,8.35715e-03
2.34000e+02,8.39402e-03
2.35000e+02,8.37416e-03
2.36000e+02,8.36009e-03
2.37000e+02,8.34574e-03
2.38000e+02,8.36846e-03
2.39000e+02,8.37033e-03
2.40000e+02,8.36363e-03
2.41000e+02,8.33470e-03
2.42000e+02,8.33795e-03
2.43000e+02,8.36101e-03
2.44000e+02,8.39295e-03
2.45000e+02,8.40271e-03
2.46000e+02,8.34296e-03
2.47000e+02,8.24418e-03
2.48000e+02,8.13703e-03
2.49000e+02,8.05254e-03
2.50000e+02,8.01791e-03
2.51000e+02,7.97682e-03
2.52000e+02,7.94056e-03
2.53000e+02,7.87352e-03
2.54000e+02,7.79400e-03
2.55000e+02,7.68879e-03
2.56000e+02,7.58144e-03
2.57000e+02,7.49441e-03
2.58000e+02,7.46552e-03
2.59000e+02,7.46360e-03
2.60000e+02,7.47096e-03
2.61000e+02,7.49860e-03
2.62000e+02,7.56299e-03
2.63000e+02,7.65281e-03
2.64000e+02,7.69859e-03
2.65000e+02,7.68604e-03
2.66000e+02,7.65454e-03
2.67000e+02,7.57677e-03
2.68000e+02,7.49768e-03
2.69000e+02,7.41911e-03
2.70000e+02,7.40319e-03
2.71000e+02,7.40041e-03
2.72000e+02,7.40448e-03
2.73000e+02,7.42575e-03
2.74000e+02,7.46342e-03
2.75000e+02,7.46096e-03
2.76000e+02,7.38173e-03
2.77000e+02,7.26917e-03
2.78000e+02,7.20601e-03
2.79000e+02,7.20743e-03
2.80000e+02,7.23659e-03
2.81000e+02,7.22690e-03
2.82000e+02,7.19916e-03
2.83000e+02,7.15426e-03
2.84000e+02,7.14490e-03
2.85000e+02,7.11198e-03
2.86000e+02,7.11407e-03
2.87000e+02,7.12823e-03
2.88000e+02,7.24244e-03
2.89000e+02,7.36127e-03
2.90000e+02,7.46291e-03
2.91000e+02,7.52446e-03
2.92000e+02,7.56111e-03
2.93000e+02,7.60006e-03
2.94000e+02,7.60344e-03
2.95000e+02,7.56872e-03
2.96000e+02,7.47894e-03
2.97000e+02,7.39277e-03
2.98000e+02,7.28617e-03
2.99000e+02,7.14268e-03
3.00000e+02,6.94627e-03
3.01000e+02,6.77130e-03
3.02000e+02,6.68847e-03
3.03000e+02,6.68601e-03
3.04000e+02,6.65501e-03
3.05000e+02,6.56847e-03
3.06000e+02,6.46702e-03
3.07000e+02,6.37306e-03
3.08000e+02,6.31618e-03
3.09000e+02,6.25613e-03
3.10000e+02,6.12892e-03
3.11000e+02,5.98326e-03
3.12000e+02,5.88752e-03
3.13000e+02,5.84067e-03
3.14000e+02,5.87599e-03
3.15000e+02,5.92603e-03
3.16000e+02,5.95598e-03
3.17000e+02,5.94916e-03
3.18000e+02,5.90577e-03
3.19000e+02,5.85440e-03
3.20000e+02,5.74938e-03
3.21000e+02,5.64845e-03
3.22000e+02,5.59393e-03
3.23000e+02,5.70868e-03
3.24000e+02,5.85064e-03
3.25000e+02,5.94544e-03
3.26000e+02,5.97538e-03
3.27000e+02,5.99473e-03
3.28000e+02,6.01304e-03
3.29000e+02,5.99647e-03
3.30000e+02,5.95665e-03
3.31000e+02,5.91864e-03
3.32000e+02,5.92267e-03
3.33000e+02,5.98486e-03
3.34000e+02,6.03217e-03
3.35000e+02,6.02035e-03
3.36000e+02,6.01793e-03
3.37000e+02,6.10566e-03
3.38000e+02,6.26151e-03
3.39000e+02,6.39753e-03
3.40000e+02,6.46925e-03
3.41000e+02,6.48498e-03
3.42000e+02,6.50802e-03
3.43000e+02,6.55856e-03
3.44000e+02,6.68725e-03
3.45000e+02,6.83142e-03
3.46000e+02,6.96680e-03
3.47000e+02,7.01923e-03
3.48000e+02,7.00023e-03
3.49000e+02,6.90897e-03
3.50000e+02,6.76371e-03
3.51000e+02,6.60598e-03
3.52000e+02,6.47117e-03
3.53000e+02,6.41872e-03
3.54000e+02,6.40411e-03
3.55000e+02,6.40238e-03
3.56000e+02,6.36475e-03
3.57000e+02,6.28228e-03
3.58000e+02,6.22880e-03
3.59000e+02,6.19220e-03
3.60000e+02,6.19003e-03
3.61000e+02,6.14319e-03
3.62000e+02,6.09484e-03
3.63000e+02,6.07172e-03
3.64000e+02,6.04328e-03
3.65000e+02,6.01193e-03
3.66000e+02,5.95453e-03
3.67000e+02,5.92708e-03
3.68000e+02,5.94702e-03
3.69000e+02,5.99539e-03
3.70000e+02,6.04265e-03
3.71000e+02,6.03430e-03
3.72000e+02,5.93673e-03
3.73000e+02,5.81259e-03
3.74000e+02,5.70769e-03
3.75000e+02,5.61976e-03
3.76000e+02,5.58484e-03
3.77000e+02,5.53656e-03
3.78000e+02,5.49168e-03
3.79000e+02,5.39181e-03
3.80000e+02,5.28717e-03
3.81000e+02,5.18554e-03
3.82000e+02,5.11118e-03
3.83000e+02,5.05775e-03
3.84000e+02,5.03403e-03
3.85000e+02,5.05647e-03
3.86000e+02,5.08901e-03
3.87000e+02,5.19975e-03
3.88000e+02,5.28884e-03
3.89000e+02,5.36648e-03
3.90000e+02,5.38500e-03
3.91000e+02,5.40407e-03
3.92000e+02,5.39872e-03
3.93000e+02,5.34321e-03
3.94000e+02,5.27312e-03
3.95000e+02,5.22751e-03
3.96000e+02,5.24709e-03
3.97000e+02,5.27536e-03
3.98000e+02,5.30584e-03
3.99000e+02,5.31583e-03
4.00000e+02,5.34559e-03
4.01000e+02,5.39264e-03
4.02000e+02,5.42030e-03
4.03000e+02,5.42030e-03
4.04000e+02,5.41991e-03
4.05000e+02,5.38450e-03
4.06000e+02,5.33381e-03
4.07000e+02,5.30633e-03
4.08000e+02,5.35166e-03
4.09000e+02,5.41618e-03
4.10000e+02,5.43534e-03
4.11000e+02,5.43666e-03
4.12000e+02,5.42882e-03
4.13000e+02,5.38067e-03
4.14000e+02,5.21835e-03
4.15000e+02,5.13366e-03
4.16000e+02,5.15822e-03
4.17000e+02,5.28162e-03
4.18000e+02,5.37833e-03
4.19000e+02,5.45197e-03
4.20000e+02,5.50725e-03
4.21000e+02,5.55526e-03
4.22000e+02,5.58633e-03
4.23000e+02,5.62240e-03
4.24000e+02,5.64064e-03
4.25000e+02,5.64604e-03
4.26000e+02,5.67046e-03
4.27000e+02,5.67714e-03
4.28000e+02,5.66958e-03
4.29000e+02,5.65534e-03
4.30000e+02,5.64356e-03
4.31000e+02,5.61134e-03
4.32000e+02,5.53695e-03
4.33000e+02,5.45370e-03
4.34000e+02,5.38316e-03
4.35000e+02,5.26274e-03
4.36000e+02,5.11856e-03
4.37000e+02,4.98318e-03
4.38000e+02,4.92749e-03
4.39000e+02,4.94334e-03
4.40000e+02,5.00726e-03
4.41000e+02,5.11251e-03
4.42000e+02,5.22780e-03
4.43000e+02,5.31729e-03
4.44000e+02,5.31045e-03
4.45000e+02,5.23853e-03
4.46000e+02,5.13715e-03
4.47000e+02,5.10114e-03
4.48000e+02,5.18028e-03
4.49000e+02,5.34444e-03
4.50000e+02,5.49311e-03
4.51000e+02,5.56234e-03
4.52000e+02,5.60928e-03
4.53000e+02,5.64814e-03
4.54000e+02,5.70191e-03
4.55000e+02,5.77194e-03
4.56000e+02,5.85582e-03
4.57000e+02,5.97952e-03
4.58000e+02,6.09175e-03
4.59000e+02,6.15843e-03
4.60000e+02,6.12701e-03
4.61000e+02,6.01689e-03
4.62000e+02,5.90611e-03
4.63000e+02,5.90064e-03
4.64000e+02,5.97577e-03
4.65000e+02,6.06950e-03
4.66000e+02,6.13067e-03
4.67000e+02,6.14701e-03
4.68000e+02,6.13078e-03
4.69000e+02,6.10780e-03
4.70000e+02,6.07165e-03
4.71000e+02,6.05745e-03
4.72000e+02,6.05745e-03
4.73000e+02,6.08979e-03
4.74000e+02,6.15046e-03
4.75000e+02,6.20365e-03
4.76000e+02,6.14364e-03
4.77000e+02,6.06750e-03
4.78000e+02,5.92243e-03
4.79000e+02,5.82927e-03
4.80000e+02,5.80200e-03
4.81000e+02,5.89800e-03
4.82000e+02,6.03409e-03
4.83000e+02,6.15820e-03
4.84000e+02,6.24593e-03
4.85000e+02,6.31523e-03
4.86000e+02,6.42297e-03
4.87000e+02,6.52969e-03
4.88000e+02,6.59427e-03
4.89000e+02,6.57106e-03
4.90000e+02,6.50642e-03
4.91000e+02,6.40468e-03
4.92000e+02,6.34470e-03
4.93000e+02,6.31704e-03
4.94000e+02,6.32620e-03
4.95000e+02,6.32179e-03
4.96000e+02,6.36732e-03
4.97000e+02,6.39721e-03
4.98000e+02,6.43903e-03
4.99000e+02,6.44107e-03
5.00000e+02,6.44518e-03
5.01000e+02,6.43009e-03
5.02000e+02,6.42877e-03
5.03000e+02,6.43427e-03
5.04000e+02,6.50406e-03
5.05000e+02,6.55625e-03
5.06000e+02,6.52236e-03
5.07000e+02,6.44732e-03
5.08000e+02,6.39820e-03
5.09000e+02,6.47252e-03
5.10000e+02,6.57493e-03
5.11000e+02,6.67773e-03
5.12000e+02,6.75030e-03
5.13000e+02,6.81857e-03
5.14000e+02,6.83363e-03
5.15000e+02,6.76731e-03
5.16000e+02,6.69155e-03
5.17000e+02,6.64680e-03
5.18000e+02,6.61916e-03
5.19000e+02,6.57353e-03
5.20000e+02,6.52284e-03
5.21000e+02,6.46227e-03
5.22000e+02,6.43440e-03
5.23000e+02,6.42799e-03
5.24000e+02,6.43843e-03
5.25000e+02,6.39574e-03
5.26000e+02,6.37835e-03
5.27000e+02,6.37835e-03
5.28000e+02,6.40114e-03
5.29000e+02,6.40114e-03
5.30000e+02,6.41267e-03
5.31000e+02,6.45037e-03
5.32000e+02,6.51805e-03
5.33000e+02,6.56418e-03
5.34000e+02,6.61099e-03
5.35000e+02,6.67801e-03
5.36000e+02,6.86719e-03
5.37000e+02,7.16661e-03
5.38000e+02,7.47694e-03
5.39000e+02,7.65877e-03
5.40000e+02,7.67286e-03
5.41000e+02,7.62218e-03
5.42000e+02,7.58228e-03
5.43000e+02,7.59117e-03
5.44000e+02,7.62117e-03
5.45000e+02,7.65749e-03
5.46000e+02,7.62996e-03
5.47000e+02,7.63582e-03
5.48000e+02,7.59867e-03
5.49000e+02,7.54527e-03
5.50000e+02,7.43356e-03
5.51000e+02,7.37117e-03
5.52000e+02,7.36399e-03
5.53000e+02,7.36694e-03
5.54000e+02,7.40454e-03
5.55000e+02,7.48344e-03
5.56000e+02,7.62523e-03
5.57000e+02,7.71421e-03
5.58000e+02,7.71613e-03
5.59000e+02,7.67190e-03
5.60000e+02,7.65066e-03
5.61000e+02,7.74953e-03
5.62000e+02,7.95959e-03
5.63000e+02,8.24321e-03
5.64000e+02,8.50580e-03
5.65000e+02,8.64959e-03
5.66000e+02,8.72055e-03
5.67000e+02,8.80314e-03
5.68000e+02,8.87422e-03
5.69000e+02,8.91014e-03
5.70000e+02,8.87332e-03
5.71000e+02,8.79531e-03
5.72000e+02,8.66744e-03
5.73000e+02,8.54360e-03
5.74000e+02,8.41950e-03
5.75000e+02,8.34425e-03
5.76000e+02,8.34048e-03
5.77000e+02,8.38157e-03
5.78000e+02,8.47601e-03
5.79000e+02,8.58051e-03
5.80000e+02,8.70040e-03
5.81000e+02,8.79138e-03
5.82000e+02,8.87456e-03
5.83000e+02,8.93503e-03
5.84000e+02,8.94943e-03
5.85000e+02,8.94028e-03
5.86000e+02,8.93751e-03
5.87000e+02,8.94562e-03
5.88000e+02,8.96616e-03
5.89000e+02,9.02823e-03
5.90000e+02,9.07667e-03
5.91000e+02,9.14649e-03
5.92000e+02,9.22775e-03
5.93000e+02,9.30101e-03
5.94000e+02,9.36245e-03
5.95000e+02,9.38373e-03
5.96000e+02,9.41689e-03
5.97000e+02,9.47195e-03
5.98000e+02,9.51130e-03
5.99000e+02,9.47812e-03
6.00000e+02,9.34754e-03
6.01000e+02,9.22590e-03
6.02000e+02,9.20378e-03
6.03000e+02,9.21968e-03
6.04000e+02,9.22431e-03
6.05000e+02,9.17487e-03
6.06000e+02,9.16548e-03
6.07000e+02,9.16548e-03
6.08000e+02,9.17437e-03
6.09000e+02,9.16519e-03
6.10000e+02,9.12828e-03
6.11000e+02,9.03736e-03
6.12000e+02,8.95373e-03
6.13000e+02,8.89949e-03
6.14000e+02,8.86678e-03
6.15000e+02,8.84674e-03
6.16000e+02,8.84674e-03
6.17000e+02,8.83563e-03
6.18000e+02,8.84113e-03
6.19000e+02,8.89400e-03
6.20000e+02,8.98654e-03
6.21000e+02,9.03596e-03
6.22000e+02,9.02626e-03
6.23000e+02,8.96090e-03
6.24000e+02,8.86135e-03
6.25000e+02,8.70799e-03
6.26000e+02,8.55604e-03
6.27000e+02,8.32271e-03
6.28000e+02,8.03937e-03
6.29000e+02,7.73442e-03
6.30000e+02,7.52065e-03
6.31000e+02,7.36757e-03
6.32000e+02,7.33244e-03
6.33000e+02,7.42128e-03
6.34000e+02,7.67293e-03
6.35000e+02,7.91100e-03
6.36000e+02,8.04108e-03
6.37000e+02,8.06487e-03
6.38000e+02,8.01810e-03
6.39000e+02,8.07674e-03
6.40000e+02,8.17437e-03
6.41000e+02,8.36881e-03
6.42000e+02,8.48547e-03
6.43000e+02,8.58981e-03
6.44000e+02,8.65708e-03
6.45000e+02,8.68585e-03
6.46000e+02,8.66204e-03
6.47000e+02,8.54553e-03
6.48000e+02,8.42862e-03
6.49000e+02,8.30585e-03
6.50000e+02,8.23635e-03
6.51000e+02,8.18608e-03
6.52000e+02,8.11084e-03
6.53000e+02,7.95223e-03
6.54000e+02,7.69971e-03
6.55000e+02,7.43577e-03
6.56000e+02,7.29657e-03
6.57000e+02,7.21984e-03
6.58000e+02,7.16163e-03
6.59000e+02,7.17744e-03
6.60000e+02,7.24361e-03
6.61000e+02,7.41640e-03
6.62000e+02,7.55673e-03
6.63000e+02,7.74836e-03
6.64000e+02,7.91176e-03
6.65000e+02,8.10403e-03
6.66000e+02,8.21687e-03
6.67000e+02,8.28481e-03
6.68000e+02,8.26213e-03
6.69000e+02,8.22905e-03
6.70000e+02,8.20647e-03
6.71000e+02,8.24512e-03
6.72000e+02,8.27330e-03
6.73000e+02,8.25688e-03
6.74000e+02,8.20139e-03
6.75000e+02,8.18699e-03
6.76000e+02,8.18699e-03
6.77000e+02,8.18699e-03
6.78000e+02,8.13335e-03
6.79000e+02,8.07225e-03
6.80000e+02,7.96322e-03
6.81000e+02,7.85571e-03
6.82000e+02,7.76536e-03
6.83000e+02,7.74091e-03
6.84000e+02,7.75766e-03
6.85000e+02,7.85939e-03
6.86000e+02,7.92406e-03
6.87000e+02,7.91693e-03
6.88000e+02,7.75925e-03
6.89000e+02,7.59417e-03
6.90000e+02,7.46256e-03
6.91000e+02,7.36454e-03
6.92000e+02,7.31707e-03
6.93000e+02,7.20297e-03
6.94000e+02,7.13744e-03
6.95000e+02,7.12089e-03
6.96000e+02,7.19946e-03
6.97000e+02,7.32632e-03
6.98000e+02,7.50423e-03
6.99000e+02,7.73927e-03
7.00000e+02,7.93590e-03
7.01000e+02,8.07627e-03
7.02000e+02,8.10948e-03
7.03000e+02,8.10948e-03
7.04000e+02,8.09344e-03
7.05000e+02,8.09254e-03
7.06000e+02,8.09061e-03
7.07000e+02,8.15427e-03
7.08000e+02,8.27759e-03
7.09000e+02,8.38933e-03
7.10000e+02,8.36634e-03
7.11000e+02,8.27380e-03
7.12000e+02,8.17562e-03
7.13000e+02,8.09923e-03
7.14000e+02,8.02387e-03
7.15000e+02,8.00110e-03
7.16000e+02,8.04006e-03
7.17000e+02,8.15101e-03
7.18000e+02,8.34675e-03
7.19000e+02,8.53206e-03
7.20000e+02,8.70061e-03
7.21000e+02,8.76607e-03
7.22000e+02,8.82656e-03
7.23000e+02,8.78610e-03
7.24000e+02,8.61670e-03
7.25000e+02,8.29547e-03
7.26000e+02,7.98062e-03
7.27000e+02,7.76839e-03
7.28000e+02,7.66741e-03
7.29000e+02,7.56230e-03
7.30000e+02,7.38621e-03
7.31000e+02,7.21346e-03
7.32000e+02,7.07128e-03
7.33000e+02,7.04046e-03
7.34000e+02,7.07490e-03
7.35000e+02,7.19750e-03
7.36000e+02,7.28120e-03
7.37000e+02,7.24945e-03
7.38000e+02,7.13045e-03
7.39000e+02,7.05084e-03
7.40000e+02,7.04564e-03
7.41000e+02,7.10965e-03
7.42000e+02,7.14013e-03
7.43000e+02,7.17291e-03
7.44000e+02,7.20266e-03
7.45000e+02,7.31621e-03
7.46000e+02,7.40121e-03
7.47000e+02,7.36832e-03
7.48000e+02,7.25099e-03
7.49000e+02,7.15125e-03
7.50000e+02,7.04019e-03
7.51000e+02,6.97363e-03
7.52000e+02,6.87863e-03
7.53000e+02,6.78375e-03
7.54000e+02,6.60444e-03
7.55000e+02,6.42429e-03
7.56000e+02,6.27214e-03
7.57000e+02,6.23639e-03
7.58000e+02,6.21546e-03
7.59000e+02,6.19081e-03
7.60000e+02,6.07482e-03
7.61000e+02,5.92723e-03
7.62000e+02,5.74725e-03
7.63000e+02,5.62808e-03
7.64000e+02,5.56132e-03
7.65000e+02,5.56652e-03
7.66000e+02,5.60627e-03
7.67000e+02,5.72738e-03
7.68000e+02,5.88282e-03
7.69000e+02,6.03180e-03
7.70000e+02,6.14030e-03
7.71000e+02,6.20815e-03
7.72000e+02,6.30315e-03
7.73000e+02,6.37838e-03
7.74000e+02,6.43966e-03
7.75000e+02,6.41791e-03
7.76000e+02,6.29685e-03
7.77000e+02,6.20138e-03
7.78000e+02,6.18777e-03
7.79000e+02,6.32365e-03
7.80000e+02,6.47637e-03
7.81000e+02,6.61619e-03
7.82000e+02,6.72235e-03
7.83000e+02,6.72946e-03
7.84000e+02,6.69169e-03
7.85000e+02,6.62074e-03
7.86000e+02,6.54018e-03
7.87000e+02,6.52444e-03
7.88000e+02,6.52695e-03
7.89000e+02,6.49124e-03
7.90000e+02,6.34707e-03
7.91000e+02,6.21680e-03
7.92000e+02,6.10295e-03
7.93000e+02,6.06974e-03
7.94000e+02,6.06974e-03
7.95000e+02,6.11430e-03
7.96000e+02,6.19780e-03
7.97000e+02,6.24082e-03
7.98000e+02,6.19466e-03
7.99000e+02,6.07515e-03
8.00000e+02,5.99192e-03
8.01000e+02,5.97419e-03
8.02000e+02,5.99090e-03
8.03000e+02,5.99090e-03
8.04000e+02,5.97538e-03
8.05000e+02,5.95503e-03
8.06000e+02,5.98802e-03
8.07000e+02,6.01901e-03
8.08000e+02,5.96185e-03
8.09000e+02,5.76611e-03
8.10000e+02,5.56471e-03
8.11000e+02,5.35782e-03
8.12000e+02,5.21360e-03
8.13000e+02,5.10893e-03
8.14000e+02,5.09208e-03
8.15000e+02,5.11118e-03
8.16000e+02,5.11118e-03
8.17000e+02,5.11098e-03
8.18000e+02,5.09003e-03
8.19000e+02,5.08422e-03
8.20000e+02,5.10073e-03
8.21000e+02,5.12218e-03
8.22000e+02,5.15397e-03
8.23000e+02,5.13732e-03
8.24000e+02,5.06734e-03
8.25000e+02,4.94827e-03
8.26000e+02,4.78525e-03
8.27000e+02,4.64802e-03
8.28000e+02,4.57338e-03
8.29000e+02,4.60878e-03
8.30000e+02,4.67371e-03
8.31000e+02,4.78311e-03
8.32000e+02,4.88218e-03
8.33000e+02,4.99597e-03
8.34000e+02,5.00734e-03
8.35000e+02,4.93592e-03
8.36000e+02,4.79127e-03
8.37000e+02,4.67528e-03
8.38000e+02,4.61833e-03
8.39000e+02,4.61833e-03
8.40000e+02,4.61833e-03
8.41000e+02,4.60643e-03
8.42000e+02,4.57995e-03
8.43000e+02,4.54887e-03
8.44000e+02,4.57430e-03
8.45000e+02,4.66237e-03
8.46000e+02,4.75905e-03
8.47000e+02,4.79562e-03
8.48000e+02,4.72275e-03
8.49000e+02,4.61021e-03
8.50000e+02,4.50871e-03
8.51000e+02,4.43704e-03
8.52000e+02,4.40987e-03
8.53000e+02,4.41457e-03
8.54000e+02,4.41457e-03
8.55000e+02,4.45559e-03
8.56000e+02,4.49399e-03
8.57000e+02,4.55020e-03
8.58000e+02,4.47981e-03
8.59000e+02,4.36542e-03
8.60000e+02,4.21643e-03
8.61000e+02,4.10793e-03
8.62000e+02,4.03472e-03
8.63000e+02,4.00508e-03
8.64000e+02,4.04716e-03
8.65000e+02,4.13975e-03
8.66000e+02,4.29626e-03
8.67000e+02,4.45342e-03
8.68000e+02,4.49173e-03
8.69000e+02,4.43037e-03
8.70000e+02,4.29301e-03
8.71000e+02,4.20718e-03
8.72000e+02,4.15180e-03
8.73000e+02,4.16976e-03
8.74000e+02,4.21412e-03
8.75000e+02,4.30560e-03
8.76000e+02,4.34075e-03
8.77000e+02,4.39247e-03
8.78000e+02,4.41435e-03
8.79000e+02,4.44892e-03
8.80000e+02,4.47253e-03
8.81000e+02,4.52068e-03
8.82000e+02,4.55852e-03
8.83000e+02,4.62957e-03
8.84000e+02,4.72271e-03
8.85000e+02,4.83210e-03
8.86000e+02,4.88676e-03
8.87000e+02,4.89003e-03
8.88000e+02,4.90137e-03
8.89000e+02,5.00924e-03
8.90000e+02,5.13302e-03
8.91000e+02,5.24799e-03
8.92000e+02,5.31962e-03
8.93000e+02,5.39266e-03
8.94000e+02,5.45197e-03
8.95000e+02,5.49998e-03
8.96000e+02,5.54846e-03
8.97000e+02,5.53892e-03
8.98000e+02,5.50664e-03
8.99000e+02,5.50508e-03
9.00000e+02,5.52388e-03
9.01000e+02,5.52388e-03
9.02000e+02,5.52388e-03
9.03000e+02,5.55179e-03
9.04000e+02,5.63969e-03
9.05000e+02,5.77980e-03
9.06000e+02,5.92548e-03
9.07000e+02,6.06444e-03
9.08000e+02,6.13777e-03
9.09000e+02,6.18880e-03
9.10000e+02,6.19168e-03
9.11000e+02,6.19253e-03
9.12000e+02,6.17108e-03
9.13000e+02,6.13998e-03
9.14000e+02,6.14397e-03
9.15000e+02,6.25733e-03
9.16000e+02,6.41314e-03
9.17000e+02,6.56142e-03
9.18000e+02,6.65271e-03
9.19000e+02,6.70704e-03
9.20000e+02,6.72816e-03
9.21000e+02,6.72257e-03
9.22000e+02,6.67350e-03
9.23000e+02,6.55166e-03
9.24000e+02,6.39868e-03
9.25000e+02,6.31429e-03
9.26000e+02,6.30450e-03
9.27000e+02,6.32734e-03
9.28000e+02,6.36678e-03
9.29000e+02,6.44207e-03
9.30000e+02,6.50613e-03
9.31000e+02,6.56883e-03
9.32000e+02,6.57590e-03
9.33000e+02,6.54568e-03
9.34000e+02,6.51030e-03
9.35000e+02,6.51029e-03
9.36000e+02,6.52556e-03
9.37000e+02,6.56188e-03
9.38000e+02,6.64908e-03
9.39000e+02,6.80158e-03
9.40000e+02,6.95483e-03
9.41000e+02,7.06200e-03
9.42000e+02,7.11710e-03
9.43000e+02,7.11710e-03
9.44000e+02,7.11240e-03
9.45000e+02,7.12329e-03
9.46000e+02,7.14538e-03
9.47000e+02,7.20962e-03
9.48000e+02,7.25234e-03
9.49000e+02,7.34779e-03
9.50000e+02,7.44995e-03
9.51000e+02,7.55438e-03
9.52000e+02,7.59772e-03
9.53000e+02,7.59088e-03
9.54000e+02,7.50722e-03
9.55000e+02,7.34183e-03
9.56000e+02,7.11974e-03
9.57000e+02,6.89565e-03
9.58000e+02,6.71410e-03
9.59000e+02,6.63716e-03
9.60000e+02,6.60561e-03
9.61000e+02,6.60561e-03
9.62000e+02,6.55546e-03
9.63000e+02,6.50569e-03
9.64000e+02,6.42315e-03
9.65000e+02,6.37422e-03
9.66000e+02,6.37342e-03
9.67000e+02,6.49145e-03
9.68000e+02,6.61896e-03
9.69000e+02,6.69376e-03
9.70000e+02,6.66265e-03
9.71000e+02,6.59410e-03
9.72000e+02,6.51156e-03
9.73000e+02,6.45924e-03
9.74000e+02,6.41057e-03
9.75000e+02,6.40285e-03
9.76000e+02,6.39288e-03
9.77000e+02,6.39106e-03
9.78000e+02,6.35153e-03
9.79000e+02,6.29603e-03
9.80000e+02,6.17065e-03
9.81000e+02,6.04306e-03
9.82000e+02,5.89409e-03
9.83000e+02,5.82104e-03
9.84000e+02,5.80875e-03
9.85000e+02,5.84902e-03
9.86000e+02,5.87665e-03
9.87000e+02,5.85624e-03
9.88000e+02,5.83086e-03
9.89000e+02,5.83437e-03
9.90000e+02,5.87080e-03
9.91000e+02,5.90158e-03
9.92000e+02,5.91765e-03
9.93000e+02,5.91765e-03
9.94000e+02,5.90996e-03
9.95000e+02,5.86679e-03
9.96000e+02,5.75892e-03
9.97000e+02,5.66742e-03
9.98000e+02,5.58959e-03
9.99000e+02,5.57652e-03
1.00000e+03,5.57506e-03
1.00100e+03,5.60717e-03
1.00200e+03,5.58981e-03
1.00300e+03,5.58981e-03
1.00400e+03,5.57994e-03
1.00500e+03,5.55846e-03
1.00600e+03,5.48168e-03
1.00700e+03,5.41968e-03
1.00800e+03,5.33881e-03
1.00900e+03,5.26353e-03
1.01000e+03,5.18537e-03
1.01100e+03,5.12885e-03
1.01200e+03,5.07720e-03
1.01300e+03,5.02423e-03
1.01400e+03,5.00920e-03
1.01500e+03,5.04040e-03
1.01600e+03,5.10850e-03
1.01700e+03,5.20643e-03
1.01800e+03,5.26029e-03
1.01900e+03,5.27582e-03
1.02000e+03,5.26116e-03
1.02100e+03,5.28380e-03
1.02200e+03,5.34572e-03
1.02300e+03,5.42404e-03
1.02400e+03,5.49680e-03
1.02500e+03,5.51254e-03
1.02600e+03,5.44237e-03
1.02700e+03,5.32672e-03
1.02800e+03,5.18219e-03
1.02900e+03,5.04054e-03
1.03000e+03,4.94891e-03
1.03100e+03,4.86563e-03
1.03200e+03,4.81789e-03
1.03300e+03,4.81112e-03
1.03400e+03,4.83162e-03
1.03500e+03,4.85372e-03
1.03600e+03,4.87573e-03
1.03700e+03,4.89385e-03
1.03800e+03,4.85823e-03
1.03900e+03,4.79158e-03
1.04000e+03,4.71259e-03
1.04100e+03,4.66822e-03
1.04200e+03,4.67255e-03
1.04300e+03,4.71098e-03
1.04400e+03,4.71098e-03
1.04500e+03,4.71098e-03
1.04600e+03,4.71098e-03
1.04700e+03,4.76561e-03
1.04800e+03,4.88503e-03
1.04900e+03,5.00666e-03
1.05000e+03,5.11611e-03
1.05100e+03,5.23725e-03
1.05200e+03,5.34445e-03
1.05300e+03,5.39987e-03
1.05400e+03,5.41456e-03
1.05500e+03,5.42644e-03
1.05600e+03,5.46071e-03
1.05700e+03,5.46146e-03
1.05800e+03,5.41524e-03
1.05900e+03,5.30114e-03
1.06000e+03,5.18586e-03
1.06100e+03,5.05586e-03
1.06200e+03,4.95860e-03
1.06300e+03,4.89324e-03
1.06400e+03,4.86855e-03
1.06500e+03,4.85190e-03
1.06600e+03,4.81409e-03
1.06700e+03,4.78939e-03
1.06800e+03,4.82912e-03
1.06900e+03,4.91025e-03
1.07000e+03,4.99714e-03
1.07100e+03,5.02598e-03
1.07200e+03,5.02598e-03
1.07300e+03,5.02598e-03
1.07400e+03,4.99244e-03
1.07500e+03,4.91499e-03
1.07600e+03,4.81642e-03
1.07700e+03,4.74077e-03
1.07800e+03,4.72352e-03
1.07900e+03,4.68917e-03
1.08000e+03,4.63034e-03
1.08100e+03,4.54612e-03
1.08200e+03,4.53519e-03
1.08300e+03,4.59476e-03
1.08400e+03,4.69133e-03
1.08500e+03,4.80278e-03
1.08600e+03,4.88600e-03
1.08700e+03,4.96321e-03
1.08800e+03,5.00384e-03
1.08900e+03,5.03858e-03
1.09000e+03,5.02555e-03
1.09100e+03,4.98003e-03
1.09200e+03,4.92876e-03
1.09300e+03,4.92876e-03
1.09400e+03,4.92876e-03
1.09500e+03,4.92876e-03
1.09600e+03,4.91991e-03
1.09700e+03,4.86746e-03
1.09800e+03,4.75394e-03
1.09900e+03,4.65740e-03
1.10000e+03,4.66824e-03
1.10100e+03,4.74439e-03
1.10200e+03,4.80961e-03
1.10300e+03,4.84704e-03
1.10400e+03,4.92568e-03
1.10500e+03,5.01508e-03
1.10600e+03,5.09361e-03
1.10700e+03,5.10212e-03
1.10800e+03,5.04522e-03
1.10900e+03,4.99654e-03
1.11000e+03,4.94821e-03
1.11100e+03,4.91466e-03
1.11200e+03,4.82796e-03
1.11300e+03,4.72400e-03
1.11400e+03,4.65924e-03
1.11500e+03,4.65680e-03
1.11600e+03,4.70031e-03
1.11700e+03,4.75182e-03
1.11800e+03,4.82134e-03
1.11900e+03,4.88377e-03
1.12000e+03,4.92189e-03
1.12100e+03,4.84980e-03
1.12200e+03,4.79928e-03
1.12300e+03,4.75452e-03
1.12400e+03,4.74304e-03
1.12500e+03,4.73748e-03
1.12600e+03,4.75347e-03
1.12700e+03,4.75553e-03
1.12800e+03,4.69634e-03
1.12900e+03,4.61658e-03
1.13000e+03,4.54456e-03
1.13100e+03,4.47737e-03
1.13200e+03,4.39631e-03
1.13300e+03,4.31253e-03
1.13400e+03,4.27172e-03
1.13500e+03,4.30914e-03
1.13600e+03,4.36644e-03
1.13700e+03,4.44152e-03
1.13800e+03,4.48472e-03
1.13900e+03,4.49262e-03
1.14000e+03,4.49487e-03
1.14100e+03,4.45727e-03
1.14200e+03,4.37289e-03
1.14300e+03,4.27011e-03
1.14400e+03,4.20582e-03
1.14500e+03,4.15744e-03
1.14600e+03,4.10121e-03
1.14700e+03,4.01537e-03
1.14800e+03,3.92395e-03
1.14900e+03,3.82968e-03
1.15000e+03,3.76767e-03
1.15100e+03,3.71820e-03
1.15200e+03,3.75725e-03
1.15300e+03,3.82662e-03
1.15400e+03,3.93415e-03
1.15500e+03,4.04422e-03
1.15600e+03,4.16442e-03
1.15700e+03,4.25280e-03
1.15800e+03,4.25697e-03
1.15900e+03,4.14725e-03
1.16000e+03,4.01887e-03
1.16100e+03,3.91527e-03
1.16200e+03,3.88643e-03
1.16300e+03,3.90271e-03
1.16400e+03,3.91841e-03
1.16500e+03,3.94474e-03
1.16600e+03,3.99619e-03
1.16700e+03,4.09168e-03
1.16800e+03,4.18439e-03
1.16900e+03,4.25912e-03
1.17000e+03,4.32865e-03
1.17100e+03,4.40022e-03
1.17200e+03,4.43734e-03
1.17300e+03,4.41625e-03
1.17400e+03,4.34061e-03
1.17500e+03,4.24404e-03
1.17600e+03,4.15542e-03
1.17700e+03,4.14207e-03
1.17800e+03,4.12280e-03
1.17900e+03,4.11424e-03
1.18000e+03,4.06199e-03
1.18100e+03,4.07867e-03
1.18200e+03,4.13060e-03
1.18300e+03,4.20300e-03
1.18400e+03,4.24776e-03
1.18500e+03,4.28398e-03
1.18600e+03,4.35474e-03
1.18700e+03,4.43403e-03
1.18800e+03,4.55035e-03
1.18900e+03,4.66932e-03
1.19000e+03,4.79088e-03
1.19100e+03,4.82780e-03
1.19200e+03,4.81839e-03
1.19300e+03,4.76951e-03
1.19400e+03,4.72440e-03
1.19500e+03,4.63683e-03
1.19600e+03,4.52122e-03
1.19700e+03,4.43173e-03
1.19800e+03,4.39478e-03
1.19900e+03,4.44387e-03
1.20000e+03,4.50156e-03
1.20100e+03,4.63563e-03
1.20200e+03,4.71044e-03
1.20300e+03,4.77002e-03
1.20400e+03,4.74937e-03
1.20500e+03,4.74185e-03
1.20600e+03,4.75311e-03
1.20700e+03,4.76313e-03
1.20800e+03,4.76288e-03
1.20900e+03,4.69640e-03
1.21000e+03,4.63095e-03
1.21100e+03,4.57058e-03
1.21200e+03,4.56510e-03
1.21300e+03,4.56014e-03
1.21400e+03,4.54857e-03
1.21500e+03,4.52747e-03
1.21600e+03,4.51254e-03
1.21700e+03,4.49595e-03
1.21800e+03,4.49331e-03
1.21900e+03,4.54315e-03
1.22000e+03,4.62755e-03
1.22100e+03,4.70582e-03
1.22200e+03,4.73588e-03
1.22300e+03,4.71811e-03
1.22400e+03,4.69313e-03
1.22500e+03,4.65438e-03
1.22600e+03,4.61956e-03
1.22700e+03,4.58603e-03
1.22800e+03,4.52789e-03
1.22900e+03,4.47865e-03
1.23000e+03,4.40932e-03
1.23100e+03,4.34663e-03
1.23200e+03,4.32602e-03
1.23300e+03,4.36223e-03
1.23400e+03,4.41638e-03
1.23500e+03,4.46748e-03
1.23600e+03,4.52895e-03
1.23700e+03,4.62159e-03
1.23800e+03,4.71293e-03
1.23900e+03,4.79239e-03
1.24000e+03,4.80758e-03
1.24100e+03,4.83018e-03
1.24200e+03,4.85888e-03
1.24300e+03,4.89685e-03
1.24400e+03,4.92482e-03
1.24500e+03,4.90921e-03
1.24600e+03,4.87555e-03
1.24700e+03,4.83520e-03
1.24800e+03,4.79698e-03
1.24900e+03,4.77169e-03
1.25000e+03,4.74429e-03
1.25100e+03,4.74429e-03
1.25200e+03,4.75161e-03
1.25300e+03,4.80081e-03
1.25400e+03,4.82797e-03
1.25500e+03,4.81727e-03
1.25600e+03,4.79094e-03
1.25700e+03,4.73949e-03
1.25800e+03,4.67529e-03
1.25900e+03,4.63011e-03
1.26000e+03,4.58319e-03
1.26100e+03,4.53424e-03
1.26200e+03,4.46060e-03
1.26300e+03,4.41903e-03
1.26400e+03,4.42129e-03
1.26500e+03,4.50156e-03
1.26600e+03,4.59256e-03
1.26700e+03,4.63397e-03
1.26800e+03,4.58635e-03
1.26900e+03,4.50914e-03
1.27000e+03,4.43201e-03
1.27100e+03,4.39142e-03
1.27200e+03,4.32751e-03
1.27300e+03,4.28015e-03
1.27400e+03,4.23290e-03
1.27500e+03,4.21774e-03
1.27600e+03,4.18152e-03
1.27700e+03,4.11076e-03
1.27800e+03,4.02219e-03
1.27900e+03,3.94011e-03
1.28000e+03,3.87306e-03
1.28100e+03,3.82674e-03
1.28200e+03,3.78458e-03
1.28300e+03,3.75120e-03
1.28400e+03,3.73487e-03
1.28500e+03,3.73487e-03
1.28600e+03,3.74684e-03
1.28700e+03,3.80191e-03
1.28800e+03,3.87448e-03
1.28900e+03,3.93426e-03
1.29000e+03,3.92517e-03
1.29100e+03,3.89638e-03
1.29200e+03,3.76862e-03
1.29300e+03,3.66671e-03
1.29400e+03,3.60713e-03
1.29500e+03,3.60756e-03
1.29600e+03,3.61614e-03
1.29700e+03,3.55240e-03
1.29800e+03,3.49873e-03
1.29900e+03,3.45349e-03
1.30000e+03,3.50209e-03
1.30100e+03,3.53812e-03
1.30200e+03,3.56713e-03
1.30300e+03,3.58213e-03
1.30400e+03,3.61990e-03
1.30500e+03,3.68323e-03
1.30600e+03,3.74965e-03
1.30700e+03,3.81770e-03
1.30800e+03,3.86227e-03
1.30900e+03,3.86939e-03
1.31000e+03,3.79751e-03
1.31100e+03,3.71310e-03
1.31200e+03,3.63484e-03
1.31300e+03,3.61747e-03
1.31400e+03,3.63789e-03
1.31500e+03,3.67288e-03
1.31600e+03,3.69910e-03
1.31700e+03,3.72445e-03
1.31800e+03,3.74912e-03
1.31900e+03,3.77889e-03
1.32000e+03,3.74222e-03
1.32100e+03,3.68355e-03
1.32200e+03,3.59914e-03
1.32300e+03,3.52293e-03
1.32400e+03,3.45412e-03
1.32500e+03,3.39556e-03
1.32600e+03,3.34248e-03
1.32700e+03,3.29626e-03
1.32800e+03,3.23588e-03
1.32900e+03,3.17777e-03
1.33000e+03,3.14779e-03
1.33100e+03,3.22628e-03
1.33200e+03,3.31278e-03
1.33300e+03,3.35838e-03
1.33400e+03,3.33513e-03
1.33500e+03,3.32857e-03
1.33600e+03,3.36089e-03
1.33700e+03,3.37208e-03
1.33800e+03,3.37563e-03
1.33900e+03,3.38683e-03
1.34000e+03,3.39729e-03
1.34100e+03,3.40241e-03
1.34200e+03,3.40241e-03
1.34300e+03,3.40737e-03
1.34400e+03,3.35817e-03
1.34500e+03,3.31913e-03
1.34600e+03,3.31413e-03
1.34700e+03,3.32104e-03
1.34800e+03,3.33337e-03
1.34900e+03,3.40497e-03
1.35000e+03,3.49538e-03
1.35100e+03,3.62057e-03
1.35200e+03,3.73360e-03
1.35300e+03,3.85295e-03
1.35400e+03,3.96250e-03
1.35500e+03,4.08567e-03
1.35600e+03,4.16443e-03
1.35700e+03,4.21465e-03
1.35800e+03,4.24677e-03
1.35900e+03,4.27469e-03
1.36000e+03,4.34412e-03
1.36100e+03,4.44240e-03
1.36200e+03,4.59218e-03
1.36300e+03,4.70549e-03
1.36400e+03,4.74835e-03
1.36500e+03,4.72321e-03
1.36600e+03,4.69360e-03
1.36700e+03,4.69360e-03
1.36800e+03,4.69683e-03
1.36900e+03,4.72023e-03
1.37000e+03,4.73282e-03
1.37100e+03,4.72301e-03
1.37200e+03,4.65873e-03
1.37300e+03,4.61533e-03
1.37400e+03,4.60577e-03
1.37500e+03,4.63551e-03
1.37600e+03,4.63551e-03
1.37700e+03,4.62355e-03
1.37800e+03,4.56847e-03
1.37900e+03,4.49703e-03
1.38000e+03,4.42951e-03
1.38100e+03,4.43377e-03
1.38200e+03,4.48629e-03
1.38300e+03,4.59609e-03
1.38400e+03,4.64784e-03
1.38500e+03,4.64784e-03
1.38600e+03,4.64741e-03
1.38700e+03,4.62227e-03
1.38800e+03,4.61851e-03
1.38900e+03,4.59160e-03
1.39000e+03,4.59128e-03
1.39100e+03,4.55109e-03
1.39200e+03,4.53088e-03
1.39300e+03,4.50187e-03
1.39400e+03,4.48687e-03
1.39500e+03,4.43459e-03
1.39600e+03,4.36816e-03
1.39700e+03,4.28599e-03
1.39800e+03,4.21794e-03
1.39900e+03,4.15186e-03
1.40000e+03,4.11244e-03
1.40100e+03,4.11244e-03
1.40200e+03,4.11244e-03
1.40300e+03,4.11244e-03
1.40400e+03,4.09975e-03
1.40500e+03,4.07933e-03
1.40600e+03,4.04433e-03
1.40700e+03,4.01592e-03
1.40800e+03,3.98797e-03
1.40900e+03,3.93953e-03
1.41000e+03,3.89282e-03
1.41100e+03,3.88089e-03
1.41200e+03,3.88089e-03
1.41300e+03,3.88089e-03
1.41400e+03,3.88089e-03
1.41500e+03,3.87300e-03
1.41600e+03,3.87300e-03
1.41700e+03,3.86711e-03
1.41800e+03,3.84616e-03
1.41900e+03,3.81390e-03
1.42000e+03,3.78068e-03
1.42100e+03,3.73119e-03
1.42200e+03,3.62482e-03
1.42300e+03,3.50575e-03
1.42400e+03,3.41826e-03
1.42500e+03,3.35369e-03
1.42600e+03,3.26291e-03
1.42700e+03,3.13867e-03
1.42800e+03,3.02386e-03
1.42900e+03,2.90823e-03
1.43000e+03,2.79926e-03
1.43100e+03,2.73520e-03
1.43200e+03,2.73008e-03
1.43300e+03,2.73008e-03
1.43400e+03,2.71779e-03
1.43500e+03,2.71779e-03
1.43600e+03,2.71339e-03
1.43700e+03,2.71339e-03
1.43800e+03,2.70648e-03
1.43900e+03,2.69415e-03