Pixels #,Intensity (a.u.)
0.00000e+00,6.66964e-03
1.00000e+00,6.65170e-03
2.00000e+00,6.67169e-03
3.00000e+00,6.69418e-03
4.00000e+00,6.71183e-03
5.00000e+00,6.71912e-03
6.00000e+00,6.70688e-03
7.00000e+00,6.67710e-03
8.00000e+00,6.64148e-03
9.00000e+00,6.60699e-03
1.00000e+01,6.56647e-03
1.10000e+01,6.51918e-03
1.20000e+01,6.50687e-03
1.30000e+01,6.51978e-03
1.40000e+01,6.56613e-03
1.50000e+01,6.59426e-03
1.60000e+01,6.58112e-03
1.70000e+01,6.49531e-03
1.80000e+01,6.40251e-03
1.90000e+01,6.30971e-03
2.00000e+01,6.22625e-03
2.10000e+01,6.15637e-03
2.20000e+01,6.11086e-03
2.30000e+01,6.08920e-03
2.40000e+01,6.07372e-03
2.50000e+01,6.04005e-03
2.60000e+01,6.01216e-03
2.70000e+01,5.98961e-03
2.80000e+01,5.99793e-03
2.90000e+01,6.00442e-03
3.00000e+01,6.01777e-03
3.10000e+01,6.04623e-03
3.20000e+01,6.07322e-03
3.30000e+01,6.05916e-03
3.40000e+01,5.99115e-03
3.50000e+01,5.89947e-03
3.60000e+01,5.83478e-03
3.70000e+01,5.79192e-03
3.80000e+01,5.77420e-03
3.90000e+01,5.75772e-03
4.00000e+01,5.71268e-03
4.10000e+01,5.66607e-03
4.20000e+01,5.61450e-03
4.30000e+01,5.58781e-03
4.40000e+01,5.52472e-03
4.50000e+01,5.45047e-03
4.60000e+01,5.37396e-03
4.70000e+01,5.35997e-03
4.80000e+01,5.36594e-03
4.90000e+01,5.37480e-03
5.00000e+01,5.33471e-03
5.10000e+01,5.31074e-03
5.20000e+01,5.29601e-03
5.30000e+01,5.35539e-03
5.40000e+01,5.38182e-03
5.50000e+01,5.37650e-03
5.60000e+01,5.33151e-03
5.70000e+01,5.32011e-03
5.80000e+01,5.34811e-03
5.90000e+01,5.35259e-03
6.00000e+01,5.33897e-03
6.10000e+01,5.31617e-03
6.20000e+01,5.32459e-03
6.30000e+01,5.35724e-03
6.40000e+01,5.37889e-03
6.50000e+01,5.38393e-03
6.60000e+01,5.34493e-03
6.70000e+01,5.30698e-03
6.80000e+01,5.29695e-03
6.90000e+01,5.31073e-03
7.00000e+01,5.36653e-03
7.10000e+01,5.42002e-03
7.20000e+01,5.46388e-03
7.30000e+01,5.48104e-03
7.40000e+01,5.43659e-03
7.50000e+01,5.39150e-03
7.60000e+01,5.34011e-03
7.70000e+01,5.31652e-03
7.80000e+01,5.28082e-03
7.90000e+01,5.28131e-03
8.00000e+01,5.27009e-03
8.10000e+01,5.19661e-03
8.20000e+01,5.05549e-03
8.30000e+01,4.89226e-03
8.40000e+01,4.79384e-03
8.50000e+01,4.77167e-03
8.60000e+01,4.77606e-03
8.70000e+01,4.82397e-03
8.80000e+01,4.91569e-03
8.90000e+01,5.04929e-03
9.00000e+01,5.16919e-03
9.10000e+01,5.26813e-03
9.20000e+01,5.29485e-03
9.30000e+01,5.26497e-03
9.40000e+01,5.21850e-03
9.50000e+01,5.15348e-03
9.60000e+01,5.09226e-03
9.70000e+01,5.03229e-03
9.80000e+01,5.02809e-03
9.90000e+01,5.07318e-03
1.00000e+02,5.17311e-03
1.01000e+02,5.29060e-03
1.02000e+02,5.41395e-03
1.03000e+02,5.49218e-03
1.04000e+02,5.53548e-03
1.05000e+02,5.53764e-03
1.06000e+02,5.55728e-03
1.07000e+02,5.60591e-03
1.08000e+02,5.70276e-03
1.09000e+02,5.76501e-03
1.10000e+02,5.77859e-03
1.11000e+02,5.76925e-03
1.12000e+02,5.76250e-03
1.13000e+02,5.76620e-03
1.14000e+02,5.78550e-03
1.15000e+02,5.76166e-03
1.16000e+02,5.73464e-03
1.17000e+02,5.68763e-03
1.18000e+02,5.64443e-03
1.19000e+02,5.57177e-03
1.20000e+02,5.50705e-03
1.21000e+02,5.45361e-03
1.22000e+02,5.40945e-03
1.23000e+02,5.37929e-03
1.24000e+02,5.38520e-03
1.25000e+02,5.40919e-03
1.26000e+02,5.46606e-03
1.27000e+02,5.52903e-03
1.28000e+02,5.60944e-03
1.29000e+02,5.65528e-03
1.30000e+02,5.65016e-03
1.31000e+02,5.63902e-03
1.32000e+02,5.59926e-03
1.33000e+02,5.57623e-03
1.34000e+02,5.53512e-03
1.35000e+02,5.56216e-03
1.36000e+02,5.59886e-03
1.37000e+02,5.62693e-03
1.38000e+02,5.58670e-03
1.39000e+02,5.55436e-03
1.40000e+02,5.55214e-03
1.41000e+02,5.56345e-03
1.42000e+02,5.58642e-03
1.43000e+02,5.58730e-03
1.44000e+02,5.56820e-03
1.45000e+02,5.57639e-03
1.46000e+02,5.59561e-03
1.47000e+02,5.62804e-03
1.48000e+02,5.63264e-03
1.49000e+02,5.63563e-03
1.50000e+02,5.65208e-03
1.51000e+02,5.64983e-03
1.52000e+02,5.62414e-03
1.53000e+02,5.56859e-03
1.54000e+02,5.54639e-03
1.55000e+02,5.58728e-03
1.56000e+02,5.70294e-03
1.57000e+02,5.83507e-03
1.58000e+02,5.95821e-03
1.59000e+02,6.05615e-03
1.60000e+02,6.16505e-03
1.61000e+02,6.22398e-03
1.62000e+02,6.25078e-03
1.63000e+02,6.25299e-03
1.64000e+02,6.26887e-03
1.65000e+02,6.31108e-03
1.66000e+02,6.34029e-03
1.67000e+02,6.36353e-03
1.68000e+02,6.39777e-03
1.69000e+02,6.45392e-03
1.70000e+02,6.49296e-03
1.71000e+02,6.49889e-03
1.72000e+02,6.52393e-03
1.73000e+02,6.53738e-03
1.74000e+02,6.57724e-03
1.75000e+02,6.58291e-03
1.76000e+02,6.57690e-03
1.77000e+02,6.55392e-03
1.78000e+02,6.50968e-03
1.79000e+02,6.42659e-03
1.80000e+02,6.31090e-03
1.81000e+02,6.20379e-03
1.82000e+02,6.12176e-03
1.83000e+02,6.05375e-03
1.84000e+02,6.03531e-03
1.85000e+02,6.06256e-03
1.86000e+02,6.11420e-03
1.87000e+02,6.14932e-03
1.88000e+02,6.16348e-03
1.89000e+02,6.15642e-03
1.90000e+02,6.10235e-03
1.91000e+02,5.99179e-03
1.92000e+02,5.84022e-03
1.93000e+02,5.69684e-03
1.94000e+02,5.59398e-03
1.95000e+02,5.52773e-03
1.96000e+02,5.46861e-03
1.97000e+02,5.35556e-03
1.98000e+02,5.22728e-03
1.99000e+02,5.12345e-03
2.00000e+02,5.07351e-03
2.01000e+02,5.10125e-03
2.02000e+02,5.14669e-03
2.03000e+02,5.18738e-03
2.04000e+02,5.17636e-03
2.05000e+02,5.14017e-03
2.06000e+02,5.15648e-03
2.07000e+02,5.24682e-03
2.08000e+02,5.36344e-03
2.09000e+02,5.48895e-03
2.10000e+02,5.58362e-03
2.11000e+02,5.65197e-03
2.12000e+02,5.67692e-03
2.13000e+02,5.70367e-03
2.14000e+02,5.73664e-03
2.15000e+02,5.76540e-03
2.16000e+02,5.80722e-03
2.17000e+02,5.83042e-03
2.18000e+02,5.82377e-03
2.19000e+02,5.77741e-03
2.20000e+02,5.75568e-03
2.21000e+02,5.78362e-03
2.22000e+02,5.82722e-03
2.23000e+02,5.82453e-03
2.24000e+02,5.80634e-03
2.25000e+02,5.78299e-03
2.26000e+02,5.74927e-03
2.27000e+02,5.75190e-03
2.28000e+02,5.78329e-03
2.29000e+02,5.87654e-03
2.30000e+02,5.97664e-03
2.31000e+02,6.07306e-03
2.32000e+02,6.15255e-03
2.33000e+02,6.15665e-03
2.34000e+02,6.12597e-03
2.35000e+02,6.05915e-03
2.36000e+02,5.99428e-03
2.37000e+02,5.94178e-03
2.38000e+02,5.92237e-03
2.39000e+02,5.93727e-03
2.40000e+02,5.96179e-03
2.41000e+02,5.97346e-03
2.42000e+02,5.99310e-03
2.43000e+02,6.02218e-03
2.44000e+02,6.06470e-03
2.45000e+02,6.08880e-03
2.46000e+02,6.07013e-03
2.47000e+02,5.99797e-03
2.48000e+02,5.92704e-03
2.49000e+02,5.86505e-03
2.50000e+02,5.82065e-03
2.51000e+02,5.75044e-03
2.52000e+02,5.67995e-03
2.53000e+02,5.61385e-03
2.54000e+02,5.56466e-03
2.55000e+02,5.49700e-03
2.56000e+02,5.42687e-03
2.57000e+02,5.35189e-03
2.58000e+02,5.30011e-03
2.59000e+02,5.28602e-03
2.60000e+02,5.28489e-03
2.61000e+02,5.29691e-03
2.62000e+02,5.29892e-03
2.63000e+02,5.32106e-03
2.64000e+02,5.35681e-03
2.65000e+02,5.40557e-03
2.66000e+02,5.47130e-03
2.67000e+02,5.48931e-03
2.68000e+02,5.53030e-03
2.69000e+02,5.57825e-03
2.70000e+02,5.67661e-03
2.71000e+02,5.76171e-03
2.72000e+02,5.83847e-03
2.73000e+02,5.91152e-03
2.74000e+02,5.98591e-03
2.75000e+02,6.01306e-03
2.76000e+02,5.99708e-03
2.77000e+02,5.95300e-03
2.78000e+02,5.94008e-03
2.79000e+02,5.96604e-03
2.80000e+02,6.02614e-03
2.81000e+02,6.10462e-03
2.82000e+02,6.18185e-03
2.83000e+02,6.27708e-03
2.84000e+02,6.37428e-03
2.85000e+02,6.43587e-03
2.86000e+02,6.45667e-03
2.87000e+02,6.45863e-03
2.88000e+02,6.52435e-03
2.89000e+02,6.62741e-03
2.90000e+02,6.74177e-03
2.91000e+02,6.84440e-03
2.92000e+02,6.92327e-03
2.93000e+02,7.00497e-03
2.94000e+02,7.09172e-03
2.95000e+02,7.19757e-03
2.96000e+02,7.26348e-03
2.97000e+02,7.27585e-03
2.98000e+02,7.18859e-03
2.99000e+02,7.05743e-03
3.00000e+02,6.90836e-03
3.01000e+02,6.81399e-03
3.02000e+02,6.79977e-03
3.03000e+02,6.81166e-03
3.04000e+02,6.77996e-03
3.05000e+02,6.68004e-03
3.06000e+02,6.56662e-03
3.07000e+02,6.47602e-03
3.08000e+02,6.39485e-03
3.09000e+02,6.31329e-03
3.10000e+02,6.22930e-03
3.11000e+02,6.13011e-03
3.12000e+02,6.03097e-03
3.13000e+02,5.96445e-03
3.14000e+02,5.99406e-03
3.15000e+02,6.05287e-03
3.16000e+02,6.08096e-03
3.17000e+02,6.08708e-03
3.18000e+02,6.02921e-03
3.19000e+02,5.96700e-03
3.20000e+02,5.86864e-03
3.21000e+02,5.77978e-03
3.22000e+02,5.71902e-03
3.23000e+02,5.79620e-03
3.24000e+02,5.89393e-03
3.25000e+02,5.96186e-03
3.26000e+02,5.97951e-03
3.27000e+02,6.00563e-03
3.28000e+02,6.04900e-03
3.29000e+02,6.07035e-03
3.30000e+02,6.03046e-03
3.31000e+02,5.95498e-03
3.32000e+02,5.90782e-03
3.33000e+02,5.90655e-03
3.34000e+02,5.90848e-03
3.35000e+02,5.86886e-03
3.36000e+02,5.82110e-03
3.37000e+02,5.82118e-03
3.38000e+02,5.91328e-03
3.39000e+02,6.03744e-03
3.40000e+02,6.15393e-03
3.41000e+02,6.21999e-03
3.42000e+02,6.24170e-03
3.43000e+02,6.23885e-03
3.44000e+02,6.25730e-03
3.45000e+02,6.28726e-03
3.46000e+02,6.36601e-03
3.47000e+02,6.42748e-03
3.48000e+02,6.49345e-03
3.49000e+02,6.48703e-03
3.50000e+02,6.42254e-03
3.51000e+02,6.32934e-03
3.52000e+02,6.25315e-03
3.53000e+02,6.26356e-03
3.54000e+02,6.30793e-03
3.55000e+02,6.33913e-03
3.56000e+02,6.31315e-03
3.57000e+02,6.22324e-03
3.58000e+02,6.15326e-03
3.59000e+02,6.09788e-03
3.60000e+02,6.08129e-03
3.61000e+02,6.00692e-03
3.62000e+02,5.90391e-03
3.63000e+02,5.80634e-03
3.64000e+02,5.73147e-03
3.65000e+02,5.70607e-03
3.66000e+02,5.68467e-03
3.67000e+02,5.67260e-03
3.68000e+02,5.70337e-03
3.69000e+02,5.76199e-03
3.70000e+02,5.83564e-03
3.71000e+02,5.84791e-03
3.72000e+02,5.77660e-03
3.73000e+02,5.66307e-03
3.74000e+02,5.54964e-03
3.75000e+02,5.51645e-03
3.76000e+02,5.55658e-03
3.77000e+02,5.61301e-03
3.78000e+02,5.63045e-03
3.79000e+02,5.57428e-03
3.80000e+02,5.47918e-03
3.81000e+02,5.36482e-03
3.82000e+02,5.24987e-03
3.83000e+02,5.14499e-03
3.84000e+02,5.07032e-03
3.85000e+02,5.04406e-03
3.86000e+02,5.03258e-03
3.87000e+02,5.08154e-03
3.88000e+02,5.15510e-03
3.89000e+02,5.26092e-03
3.90000e+02,5.34234e-03
3.91000e+02,5.42285e-03
3.92000e+02,5.46260e-03
3.93000e+02,5.43110e-03
3.94000e+02,5.36743e-03
3.95000e+02,5.31723e-03
3.96000e+02,5.33787e-03
3.97000e+02,5.37444e-03
3.98000e+02,5.42744e-03
3.99000e+02,5.50459e-03
4.00000e+02,5.62474e-03
4.01000e+02,5.74159e-03
4.02000e+02,5.85014e-03
4.03000e+02,5.92391e-03
4.04000e+02,5.96568e-03
4.05000e+02,5.94232e-03
4.06000e+02,5.90096e-03
4.07000e+02,5.92987e-03
4.08000e+02,6.00087e-03
4.09000e+02,6.08758e-03
4.10000e+02,6.08036e-03
4.11000e+02,6.08036e-03
4.12000e+02,6.06913e-03
4.13000e+02,6.05684e-03
4.14000e+02,5.94241e-03
4.15000e+02,5.88480e-03
4.16000e+02,5.90133e-03
4.17000e+02,6.00047e-03
4.18000e+02,6.07568e-03
4.19000e+02,6.14862e-03
4.20000e+02,6.20112e-03
4.21000e+02,6.26580e-03
4.22000e+02,6.31718e-03
4.23000e+02,6.36691e-03
4.24000e+02,6.38274e-03
4.25000e+02,6.38463e-03
4.26000e+02,6.41695e-03
4.27000e+02,6.48933e-03
4.28000e+02,6.55633e-03
4.29000e+02,6.55241e-03
4.30000e+02,6.52144e-03
4.31000e+02,6.47196e-03
4.32000e+02,6.42785e-03
4.33000e+02,6.38707e-03
4.34000e+02,6.38219e-03
4.35000e+02,6.37662e-03
4.36000e+02,6.33088e-03
4.37000e+02,6.25214e-03
4.38000e+02,6.19066e-03
4.39000e+02,6.15149e-03
4.40000e+02,6.19216e-03
4.41000e+02,6.25817e-03
4.42000e+02,6.31349e-03
4.43000e+02,6.33031e-03
4.44000e+02,6.28492e-03
4.45000e+02,6.19116e-03
4.46000e+02,6.11136e-03
4.47000e+02,6.10001e-03
4.48000e+02,6.20407e-03
4.49000e+02,6.34939e-03
4.50000e+02,6.43101e-03
4.51000e+02,6.43426e-03
4.52000e+02,6.41802e-03
4.53000e+02,6.45645e-03
4.54000e+02,6.51767e-03
4.55000e+02,6.58578e-03
4.56000e+02,6.60328e-03
4.57000e+02,6.63552e-03
4.58000e+02,6.69672e-03
4.59000e+02,6.76647e-03
4.60000e+02,6.79401e-03
4.61000e+02,6.74701e-03
4.62000e+02,6.68258e-03
4.63000e+02,6.67912e-03
4.64000e+02,6.73833e-03
4.65000e+02,6.80978e-03
4.66000e+02,6.80663e-03
4.67000e+02,6.76423e-03
4.68000e+02,6.72822e-03
4.69000e+02,6.73348e-03
4.70000e+02,6.72247e-03
4.71000e+02,6.71451e-03
4.72000e+02,6.71451e-03
4.73000e+02,6.74154e-03
4.74000e+02,6.77378e-03
4.75000e+02,6.83778e-03
4.76000e+02,6.82080e-03
4.77000e+02,6.77549e-03
4.78000e+02,6.64377e-03
4.79000e+02,6.53216e-03
4.80000e+02,6.46235e-03
4.81000e+02,6.49864e-03
4.82000e+02,6.54363e-03
4.83000e+02,6.56595e-03
4.84000e+02,6.57019e-03
4.85000e+02,6.62055e-03
4.86000e+02,6.69290e-03
4.87000e+02,6.75596e-03
4.88000e+02,6.77948e-03
4.89000e+02,6.76765e-03
4.90000e+02,6.71162e-03
4.91000e+02,6.61069e-03
4.92000e+02,6.51643e-03
4.93000e+02,6.40803e-03
4.94000e+02,6.34641e-03
4.95000e+02,6.32732e-03
4.96000e+02,6.40521e-03
4.97000e+02,6.49242e-03
4.98000e+02,6.56685e-03
4.99000e+02,6.62034e-03
5.00000e+02,6.68717e-03
5.01000e+02,6.77168e-03
5.02000e+02,6.84769e-03
5.03000e+02,6.90418e-03
5.04000e+02,6.95852e-03
5.05000e+02,6.95236e-03
5.06000e+02,6.91730e-03
5.07000e+02,6.88922e-03
5.08000e+02,6.90624e-03
5.09000e+02,6.98289e-03
5.10000e+02,7.04678e-03
5.11000e+02,7.11665e-03
5.12000e+02,7.20799e-03
5.13000e+02,7.34130e-03
5.14000e+02,7.45229e-03
5.15000e+02,7.51643e-03
5.16000e+02,7.54157e-03
5.17000e+02,7.52998e-03
5.18000e+02,7.46400e-03
5.19000e+02,7.36301e-03
5.20000e+02,7.29093e-03
5.21000e+02,7.22291e-03
5.22000e+02,7.17952e-03
5.23000e+02,7.13823e-03
5.24000e+02,7.11871e-03
5.25000e+02,7.06560e-03
5.26000e+02,7.00712e-03
5.27000e+02,7.00245e-03
5.28000e+02,7.02533e-03
5.29000e+02,7.05856e-03
5.30000e+02,7.13534e-03
5.31000e+02,7.22542e-03
5.32000e+02,7.34516e-03
5.33000e+02,7.45897e-03
5.34000e+02,7.60118e-03
5.35000e+02,7.75829e-03
5.36000e+02,8.00181e-03
5.37000e+02,8.28738e-03
5.38000e+02,8.55684e-03
5.39000e+02,8.68268e-03
5.40000e+02,8.71070e-03
5.41000e+02,8.71667e-03
5.42000e+02,8.76904e-03
5.43000e+02,8.86039e-03
5.44000e+02,8.94407e-03
5.45000e+02,8.99687e-03
5.46000e+02,9.01193e-03
5.47000e+02,9.06636e-03
5.48000e+02,9.08800e-03
5.49000e+02,9.01925e-03
5.50000e+02,8.86574e-03
5.51000e+02,8.71851e-03
5.52000e+02,8.63706e-03
5.53000e+02,8.58703e-03
5.54000e+02,8.61399e-03
5.55000e+02,8.68412e-03
5.56000e+02,8.82089e-03
5.57000e+02,8.94108e-03
5.58000e+02,9.03416e-03
5.59000e+02,9.09498e-03
5.60000e+02,9.13378e-03
5.61000e+02,9.21829e-03
5.62000e+02,9.37339e-03
5.63000e+02,9.56491e-03
5.64000e+02,9.75642e-03
5.65000e+02,9.87100e-03
5.66000e+02,9.89875e-03
5.67000e+02,9.91432e-03
5.68000e+02,9.91589e-03
5.69000e+02,9.92932e-03
5.70000e+02,9.88549e-03
5.71000e+02,9.82751e-03
5.72000e+02,9.71035e-03
5.73000e+02,9.60946e-03
5.74000e+02,9.52262e-03
5.75000e+02,9.48167e-03
5.76000e+02,9.52009e-03
5.77000e+02,9.63504e-03
5.78000e+02,9.79252e-03
5.79000e+02,9.92877e-03
5.80000e+02,9.99882e-03
5.81000e+02,1.00471e-02
5.82000e+02,1.01112e-02
5.83000e+02,1.01880e-02
5.84000e+02,1.02569e-02
5.85000e+02,1.02748e-02
5.86000e+02,1.02469e-02
5.87000e+02,1.01958e-02
5.88000e+02,1.01376e-02
5.89000e+02,1.01189e-02
5.90000e+02,1.01078e-02
5.91000e+02,1.01245e-02
5.92000e+02,1.01869e-02
5.93000e+02,1.02651e-02
5.94000e+02,1.03472e-02
5.95000e+02,1.03896e-02
5.96000e+02,1.04660e-02
5.97000e+02,1.05451e-02
5.98000e+02,1.05998e-02
5.99000e+02,1.05559e-02
6.00000e+02,1.04486e-02
6.01000e+02,1.03222e-02
6.02000e+02,1.02326e-02
6.03000e+02,1.01284e-02
6.04000e+02,1.00245e-02
6.05000e+02,9.93533e-03
6.06000e+02,9.90764e-03
6.07000e+02,9.90988e-03
6.08000e+02,9.90211e-03
6.09000e+02,9.89175e-03
6.10000e+02,9.86045e-03
6.11000e+02,9.79020e-03
6.12000e+02,9.72291e-03
6.13000e+02,9.74415e-03
6.14000e+02,9.82721e-03
6.15000e+02,9.92517e-03
6.16000e+02,9.94496e-03
6.17000e+02,9.94496e-03
6.18000e+02,9.94496e-03
6.19000e+02,9.96316e-03
6.20000e+02,9.98902e-03
6.21000e+02,9.98111e-03
6.22000e+02,9.96330e-03
6.23000e+02,9.93427e-03
6.24000e+02,9.90402e-03
6.25000e+02,9.81249e-03
6.26000e+02,9.70857e-03
6.27000e+02,9.52061e-03
6.28000e+02,9.30922e-03
6.29000e+02,9.03912e-03
6.30000e+02,8.84357e-03
6.31000e+02,8.66958e-03
6.32000e+02,8.58022e-03
6.33000e+02,8.51974e-03
6.34000e+02,8.60393e-03
6.35000e+02,8.70273e-03
6.36000e+02,8.81549e-03
6.37000e+02,8.82640e-03
6.38000e+02,8.79302e-03
6.39000e+02,8.81966e-03
6.40000e+02,8.92293e-03
6.41000e+02,9.11831e-03
6.42000e+02,9.24339e-03
6.43000e+02,9.33107e-03
6.44000e+02,9.35278e-03
6.45000e+02,9.32133e-03
6.46000e+02,9.26731e-03
6.47000e+02,9.17421e-03
6.48000e+02,9.08783e-03
6.49000e+02,8.94914e-03
6.50000e+02,8.77649e-03
6.51000e+02,8.63740e-03
6.52000e+02,8.57107e-03
6.53000e+02,8.47910e-03
6.54000e+02,8.35976e-03
6.55000e+02,8.20587e-03
6.56000e+02,8.14591e-03
6.57000e+02,8.09786e-03
6.58000e+02,8.04854e-03
6.59000e+02,8.05225e-03
6.60000e+02,8.09886e-03
6.61000e+02,8.24142e-03
6.62000e+02,8.36890e-03
6.63000e+02,8.55599e-03
6.64000e+02,8.74823e-03
6.65000e+02,8.93425e-03
6.66000e+02,9.03436e-03
6.67000e+02,9.02789e-03
6.68000e+02,8.94338e-03
6.69000e+02,8.86350e-03
6.70000e+02,8.83895e-03
6.71000e+02,8.88812e-03
6.72000e+02,8.92691e-03
6.73000e+02,8.90752e-03
6.74000e+02,8.85771e-03
6.75000e+02,8.81227e-03
6.76000e+02,8.80590e-03
6.77000e+02,8.79741e-03
6.78000e+02,8.76064e-03
6.79000e+02,8.71412e-03
6.80000e+02,8.61848e-03
6.81000e+02,8.48920e-03
6.82000e+02,8.34149e-03
6.83000e+02,8.25103e-03
6.84000e+02,8.23116e-03
6.85000e+02,8.32014e-03
6.86000e+02,8.40074e-03
6.87000e+02,8.39389e-03
6.88000e+02,8.24057e-03
6.89000e+02,8.07906e-03
6.90000e+02,7.97044e-03
6.91000e+02,7.88633e-03
6.92000e+02,7.85642e-03
6.93000e+02,7.79600e-03
6.94000e+02,7.82709e-03
6.95000e+02,7.88602e-03
6.96000e+02,7.97557e-03
6.97000e+02,8.02850e-03
6.98000e+02,8.08904e-03
6.99000e+02,8.19094e-03
7.00000e+02,8.27593e-03
7.01000e+02,8.33856e-03
7.02000e+02,8.33529e-03
7.03000e+02,8.31000e-03
7.04000e+02,8.20397e-03
7.05000e+02,8.08094e-03
7.06000e+02,7.96620e-03
7.07000e+02,8.01454e-03
7.08000e+02,8.15253e-03
7.09000e+02,8.30819e-03
7.10000e+02,8.38608e-03
7.11000e+02,8.35224e-03
7.12000e+02,8.25657e-03
7.13000e+02,8.13250e-03
7.14000e+02,8.00487e-03
7.15000e+02,7.89826e-03
7.16000e+02,7.86682e-03
7.17000e+02,7.85998e-03
7.18000e+02,7.95270e-03
7.19000e+02,8.04716e-03
7.20000e+02,8.18719e-03
7.21000e+02,8.25886e-03
7.22000e+02,8.32033e-03
7.23000e+02,8.31892e-03
7.24000e+02,8.26854e-03
7.25000e+02,8.10010e-03
7.26000e+02,7.90184e-03
7.27000e+02,7.70444e-03
7.28000e+02,7.57692e-03
7.29000e+02,7.47784e-03
7.30000e+02,7.37561e-03
7.31000e+02,7.29279e-03
7.32000e+02,7.17578e-03
7.33000e+02,7.11620e-03
7.34000e+02,7.10324e-03
7.35000e+02,7.18419e-03
7.36000e+02,7.24983e-03
7.37000e+02,7.22762e-03
7.38000e+02,7.14005e-03
7.39000e+02,7.07004e-03
7.40000e+02,7.08846e-03
7.41000e+02,7.18926e-03
7.42000e+02,7.27021e-03
7.43000e+02,7.31142e-03
7.44000e+02,7.31544e-03
7.45000e+02,7.32027e-03
7.46000e+02,7.30927e-03
7.47000e+02,7.24274e-03
7.48000e+02,7.17508e-03
7.49000e+02,7.12362e-03
7.50000e+02,7.09019e-03
7.51000e+02,7.07205e-03
7.52000e+02,7.04413e-03
7.53000e+02,6.95798e-03
7.54000e+02,6.77705e-03
7.55000e+02,6.57780e-03
7.56000e+02,6.45654e-03
7.57000e+02,6.44745e-03
7.58000e+02,6.43907e-03
7.59000e+02,6.39519e-03
7.60000e+02,6.26748e-03
7.61000e+02,6.12556e-03
7.62000e+02,5.97154e-03
7.63000e+02,5.86339e-03
7.64000e+02,5.79657e-03
7.65000e+02,5.74913e-03
7.66000e+02,5.77044e-03
7.67000e+02,5.83507e-03
7.68000e+02,5.96463e-03
7.69000e+02,6.10793e-03
7.70000e+02,6.27082e-03
7.71000e+02,6.40554e-03
7.72000e+02,6.55329e-03
7.73000e+02,6.67032e-03
7.74000e+02,6.75368e-03
7.75000e+02,6.71039e-03
7.76000e+02,6.51432e-03
7.77000e+02,6.30701e-03
7.78000e+02,6.19348e-03
7.79000e+02,6.24553e-03
7.80000e+02,6.31532e-03
7.81000e+02,6.37151e-03
7.82000e+02,6.40729e-03
7.83000e+02,6.42400e-03
7.84000e+02,6.41304e-03
7.85000e+02,6.34050e-03
7.86000e+02,6.22834e-03
7.87000e+02,6.14592e-03
7.88000e+02,6.10067e-03
7.89000e+02,6.09946e-03
7.90000e+02,6.08919e-03
7.91000e+02,6.07986e-03
7.92000e+02,6.02250e-03
7.93000e+02,6.01137e-03
7.94000e+02,6.02201e-03
7.95000e+02,6.08809e-03
7.96000e+02,6.16765e-03
7.97000e+02,6.21419e-03
7.98000e+02,6.18616e-03
7.99000e+02,6.07291e-03
8.00000e+02,5.94853e-03
8.01000e+02,5.85982e-03
8.02000e+02,5.87178e-03
8.03000e+02,5.87215e-03
8.04000e+02,5.87215e-03
8.05000e+02,5.84957e-03
8.06000e+02,5.87261e-03
8.07000e+02,5.89834e-03
8.08000e+02,5.89882e-03
8.09000e+02,5.77652e-03
8.10000e+02,5.62250e-03
8.11000e+02,5.42399e-03
8.12000e+02,5.28810e-03
8.13000e+02,5.19908e-03
8.14000e+02,5.17980e-03
8.15000e+02,5.15223e-03
8.16000e+02,5.13782e-03
8.17000e+02,5.15811e-03
8.18000e+02,5.25117e-03
8.19000e+02,5.37853e-03
8.20000e+02,5.47634e-03
8.21000e+02,5.50426e-03
8.22000e+02,5.48707e-03
8.23000e+02,5.45594e-03
8.24000e+02,5.44296e-03
8.25000e+02,5.43519e-03
8.26000e+02,5.41475e-03
8.27000e+02,5.39732e-03
8.28000e+02,5.39002e-03
8.29000e+02,5.42537e-03
8.30000e+02,5.46089e-03
8.31000e+02,5.52114e-03
8.32000e+02,5.57822e-03
8.33000e+02,5.64764e-03
8.34000e+02,5.66280e-03
8.35000e+02,5.65403e-03
8.36000e+02,5.59074e-03
8.37000e+02,5.53709e-03
8.38000e+02,5.50146e-03
8.39000e+02,5.48429e-03
8.40000e+02,5.48893e-03
8.41000e+02,5.48143e-03
8.42000e+02,5.45600e-03
8.43000e+02,5.39405e-03
8.44000e+02,5.40860e-03
8.45000e+02,5.52397e-03
8.46000e+02,5.64798e-03
8.47000e+02,5.70469e-03
8.48000e+02,5.64534e-03
8.49000e+02,5.55626e-03
8.50000e+02,5.47541e-03
8.51000e+02,5.41915e-03
8.52000e+02,5.38977e-03
8.53000e+02,5.41666e-03
8.54000e+02,5.46080e-03
8.55000e+02,5.53631e-03
8.56000e+02,5.56447e-03
8.57000e+02,5.55243e-03
8.58000e+02,5.46418e-03
8.59000e+02,5.35276e-03
8.60000e+02,5.20946e-03
8.61000e+02,5.07155e-03
8.62000e+02,4.99450e-03
8.63000e+02,5.01024e-03
8.64000e+02,5.10756e-03
8.65000e+02,5.22659e-03
8.66000e+02,5.40605e-03
8.67000e+02,5.65242e-03
8.68000e+02,5.85846e-03
8.69000e+02,6.00434e-03
8.70000e+02,6.05243e-03
8.71000e+02,6.10513e-03
8.72000e+02,6.14400e-03
8.73000e+02,6.21173e-03
8.74000e+02,6.26281e-03
8.75000e+02,6.33961e-03
8.76000e+02,6.38426e-03
8.77000e+02,6.43884e-03
8.78000e+02,6.51978e-03
8.79000e+02,6.63858e-03
8.80000e+02,6.72646e-03
8.81000e+02,6.77370e-03
8.82000e+02,6.79066e-03
8.83000e+02,6.86250e-03
8.84000e+02,6.94581e-03
8.85000e+02,7.04088e-03
8.86000e+02,7.05124e-03
8.87000e+02,7.01506e-03
8.88000e+02,6.98598e-03
8.89000e+02,7.04472e-03
8.90000e+02,7.13696e-03
8.91000e+02,7.25537e-03
8.92000e+02,7.35184e-03
8.93000e+02,7.45371e-03
8.94000e+02,7.56215e-03
8.95000e+02,7.65022e-03
8.96000e+02,7.69850e-03
8.97000e+02,7.69464e-03
8.98000e+02,7.66302e-03
8.99000e+02,7.66816e-03
9.00000e+02,7.70268e-03
9.01000e+02,7.73922e-03
9.02000e+02,7.78182e-03
9.03000e+02,7.87244e-03
9.04000e+02,7.97549e-03
9.05000e+02,8.06855e-03
9.06000e+02,8.14860e-03
9.07000e+02,8.19639e-03
9.08000e+02,8.19220e-03
9.09000e+02,8.13436e-03
9.10000e+02,8.06300e-03
9.11000e+02,8.01601e-03
9.12000e+02,7.94582e-03
9.13000e+02,7.89384e-03
9.14000e+02,7.89034e-03
9.15000e+02,7.98871e-03
9.16000e+02,8.11750e-03
9.17000e+02,8.22601e-03
9.18000e+02,8.26435e-03
9.19000e+02,8.28019e-03
9.20000e+02,8.27083e-03
9.21000e+02,8.24763e-03
9.22000e+02,8.16231e-03
9.23000e+02,8.01913e-03
9.24000e+02,7.86222e-03
9.25000e+02,7.77128e-03
9.26000e+02,7.74298e-03
9.27000e+02,7.83695e-03
9.28000e+02,7.93593e-03
9.29000e+02,8.02528e-03
9.30000e+02,8.03775e-03
9.31000e+02,8.01795e-03
9.32000e+02,7.96457e-03
9.33000e+02,7.93396e-03
9.34000e+02,7.96924e-03
9.35000e+02,8.02550e-03
9.36000e+02,8.03405e-03
9.37000e+02,8.01628e-03
9.38000e+02,8.02953e-03
9.39000e+02,8.11135e-03
9.40000e+02,8.22419e-03
9.41000e+02,8.34256e-03
9.42000e+02,8.42451e-03
9.43000e+02,8.46768e-03
9.44000e+02,8.43442e-03
9.45000e+02,8.44833e-03
9.46000e+02,8.47458e-03
9.47000e+02,8.60336e-03
9.48000e+02,8.72028e-03
9.49000e+02,8.90156e-03
9.50000e+02,9.04967e-03
9.51000e+02,9.16794e-03
9.52000e+02,9.19427e-03
9.53000e+02,9.13471e-03
9.54000e+02,8.98071e-03
9.55000e+02,8.78212e-03
9.56000e+02,8.56949e-03
9.57000e+02,8.35210e-03
9.58000e+02,8.13878e-03
9.59000e+02,7.97313e-03
9.60000e+02,7.84824e-03
9.61000e+02,7.74809e-03
9.62000e+02,7.64790e-03
9.63000e+02,7.56775e-03
9.64000e+02,7.48555e-03
9.65000e+02,7.40294e-03
9.66000e+02,7.35972e-03
9.67000e+02,7.40625e-03
9.68000e+02,7.46627e-03
9.69000e+02,7.44790e-03
9.70000e+02,7.36294e-03
9.71000e+02,7.27476e-03
9.72000e+02,7.23790e-03
9.73000e+02,7.25885e-03
9.74000e+02,7.28586e-03
9.75000e+02,7.32135e-03
9.76000e+02,7.33845e-03
9.77000e+02,7.40088e-03
9.78000e+02,7.46666e-03
9.79000e+02,7.51573e-03
9.80000e+02,7.46847e-03
9.81000e+02,7.39231e-03
9.82000e+02,7.31412e-03
9.83000e+02,7.29684e-03
9.84000e+02,7.30191e-03
9.85000e+02,7.32817e-03
9.86000e+02,7.31936e-03
9.87000e+02,7.29543e-03
9.88000e+02,7.24466e-03
9.89000e+02,7.24658e-03
9.90000e+02,7.27163e-03
9.91000e+02,7.31004e-03
9.92000e+02,7.31081e-03
9.93000e+02,7.29192e-03
9.94000e+02,7.21785e-03
9.95000e+02,7.14788e-03
9.96000e+02,7.07626e-03
9.97000e+02,7.09136e-03
9.98000e+02,7.10819e-03
9.99000e+02,7.17857e-03
1.00000e+03,7.20840e-03
1.00100e+03,7.26279e-03
1.00200e+03,7.26046e-03
1.00300e+03,7.31257e-03
1.00400e+03,7.36344e-03
1.00500e+03,7.40889e-03
1.00600e+03,7.37503e-03
1.00700e+03,7.28612e-03
1.00800e+03,7.18775e-03
1.00900e+03,7.10328e-03
1.01000e+03,7.03023e-03
1.01100e+03,6.97669e-03
1.01200e+03,6.93000e-03
1.01300e+03,6.89631e-03
1.01400e+03,6.89296e-03
1.01500e+03,6.89998e-03
1.01600e+03,6.94784e-03
1.01700e+03,7.02968e-03
1.01800e+03,7.02474e-03
1.01900e+03,7.01525e-03
1.02000e+03,7.02646e-03
1.02100e+03,7.16033e-03
1.02200e+03,7.34450e-03
1.02300e+03,7.52499e-03
1.02400e+03,7.64117e-03
1.02500e+03,7.62742e-03
1.02600e+03,7.53428e-03
1.02700e+03,7.40028e-03
1.02800e+03,7.29603e-03
1.02900e+03,7.21534e-03
1.03000e+03,7.21265e-03
1.03100e+03,7.24896e-03
1.03200e+03,7.28418e-03
1.03300e+03,7.33277e-03
1.03400e+03,7.36988e-03
1.03500e+03,7.45463e-03
1.03600e+03,7.51070e-03
1.03700e+03,7.61554e-03
1.03800e+03,7.68968e-03
1.03900e+03,7.74369e-03
1.04000e+03,7.72329e-03
1.04100e+03,7.72508e-03
1.04200e+03,7.78064e-03
1.04300e+03,7.84110e-03
1.04400e+03,7.82426e-03
1.04500e+03,7.80151e-03
1.04600e+03,7.80338e-03
1.04700e+03,7.91756e-03
1.04800e+03,8.06830e-03
1.04900e+03,8.22258e-03
1.05000e+03,8.38922e-03
1.05100e+03,8.56727e-03
1.05200e+03,8.74247e-03
1.05300e+03,8.88293e-03
1.05400e+03,9.01954e-03
1.05500e+03,9.16323e-03
1.05600e+03,9.32591e-03
1.05700e+03,9.45731e-03
1.05800e+03,9.50679e-03
1.05900e+03,9.47982e-03
1.06000e+03,9.43590e-03
1.06100e+03,9.36960e-03
1.06200e+03,9.30823e-03
1.06300e+03,9.25763e-03
1.06400e+03,9.24412e-03
1.06500e+03,9.25927e-03
1.06600e+03,9.26042e-03
1.06700e+03,9.25791e-03
1.06800e+03,9.26260e-03
1.06900e+03,9.29351e-03
1.07000e+03,9.34333e-03
1.07100e+03,9.37180e-03
1.07200e+03,9.38830e-03
1.07300e+03,9.35962e-03
1.07400e+03,9.31395e-03
1.07500e+03,9.24979e-03
1.07600e+03,9.23847e-03
1.07700e+03,9.28769e-03
1.07800e+03,9.38471e-03
1.07900e+03,9.45855e-03
1.08000e+03,9.48010e-03
1.08100e+03,9.46167e-03
1.08200e+03,9.46684e-03
1.08300e+03,9.54522e-03
1.08400e+03,9.65486e-03
1.08500e+03,9.78593e-03
1.08600e+03,9.87019e-03
1.08700e+03,9.95017e-03
1.08800e+03,9.99168e-03
1.08900e+03,1.00605e-02
1.09000e+03,1.00605e-02
1.09100e+03,1.00113e-02
1.09200e+03,9.90762e-03
1.09300e+03,9.85147e-03
1.09400e+03,9.83800e-03
1.09500e+03,9.82596e-03
1.09600e+03,9.80787e-03
1.09700e+03,9.75893e-03
1.09800e+03,9.73643e-03
1.09900e+03,9.72719e-03
1.10000e+03,9.79480e-03
1.10100e+03,9.89572e-03
1.10200e+03,9.99706e-03
1.10300e+03,1.00854e-02
1.10400e+03,1.02148e-02
1.10500e+03,1.03760e-02
1.10600e+03,1.05566e-02
1.10700e+03,1.06149e-02
1.10800e+03,1.05992e-02
1.10900e+03,1.05685e-02
1.11000e+03,1.05728e-02
1.11100e+03,1.05678e-02
1.11200e+03,1.04946e-02
1.11300e+03,1.03906e-02
1.11400e+03,1.02811e-02
1.11500e+03,1.02419e-02
1.11600e+03,1.02876e-02
1.11700e+03,1.03695e-02
1.11800e+03,1.04712e-02
1.11900e+03,1.05064e-02
1.12000e+03,1.05034e-02
1.12100e+03,1.03940e-02
1.12200e+03,1.02684e-02
1.12300e+03,1.01297e-02
1.12400e+03,1.00312e-02
1.12500e+03,9.99920e-03
1.12600e+03,9.98686e-03
1.12700e+03,9.94086e-03
1.12800e+03,9.78415e-03
1.12900e+03,9.57530e-03
1.13000e+03,9.39972e-03
1.13100e+03,9.27596e-03
1.13200e+03,9.18497e-03
1.13300e+03,9.12211e-03
1.13400e+03,9.13264e-03
1.13500e+03,9.24684e-03
1.13600e+03,9.33082e-03
1.13700e+03,9.36453e-03
1.13800e+03,9.27666e-03
1.13900e+03,9.20894e-03
1.14000e+03,9.14741e-03
1.14100e+03,9.08998e-03
1.14200e+03,8.97499e-03
1.14300e+03,8.86041e-03
1.14400e+03,8.72998e-03
1.14500e+03,8.58670e-03
1.14600e+03,8.40125e-03
1.14700e+03,8.23243e-03
1.14800e+03,8.05944e-03
1.14900e+03,7.92494e-03
1.15000e+03,7.82908e-03
1.15100e+03,7.76761e-03
1.15200e+03,7.74139e-03
1.15300e+03,7.70350e-03
1.15400e+03,7.69712e-03
1.15500e+03,7.70865e-03
1.15600e+03,7.75195e-03
1.15700e+03,7.76704e-03
1.15800e+03,7.73642e-03
1.15900e+03,7.65667e-03
1.16000e+03,7.55489e-03
1.16100e+03,7.47595e-03
1.16200e+03,7.43757e-03
1.16300e+03,7.43012e-03
1.16400e+03,7.41042e-03
1.16500e+03,7.39704e-03
1.16600e+03,7.39739e-03
1.16700e+03,7.41140e-03
1.16800e+03,7.42280e-03
1.16900e+03,7.41753e-03
1.17000e+03,7.44019e-03
1.17100e+03,7.45096e-03
1.17200e+03,7.47348e-03
1.17300e+03,7.47803e-03
1.17400e+03,7.43921e-03
1.17500e+03,7.38069e-03
1.17600e+03,7.30289e-03
1.17700e+03,7.30502e-03
1.17800e+03,7.31442e-03
1.17900e+03,7.35862e-03
1.18000e+03,7.36966e-03
1.18100e+03,7.44882e-03
1.18200e+03,7.54587e-03
1.18300e+03,7.65483e-03
1.18400e+03,7.71701e-03
1.18500e+03,7.75494e-03
1.18600e+03,7.82159e-03
1.18700e+03,7.89518e-03
1.18800e+03,7.99933e-03
1.18900e+03,8.07676e-03
1.19000e+03,8.16351e-03
1.19100e+03,8.20514e-03
1.19200e+03,8.23370e-03
1.19300e+03,8.23571e-03
1.19400e+03,8.22715e-03
1.19500e+03,8.15807e-03
1.19600e+03,8.06450e-03
1.19700e+03,7.98804e-03
1.19800e+03,8.01037e-03
1.19900e+03,8.04445e-03
1.20000e+03,8.07620e-03
1.20100e+03,8.09039e-03
1.20200e+03,8.12263e-03
1.20300e+03,8.17551e-03
1.20400e+03,8.21142e-03
1.20500e+03,8.25262e-03
1.20600e+03,8.26869e-03
1.20700e+03,8.25625e-03
1.20800e+03,8.23407e-03
1.20900e+03,8.20663e-03
1.21000e+03,8.19513e-03
1.21100e+03,8.14251e-03
1.21200e+03,8.12059e-03
1.21300e+03,8.10852e-03
1.21400e+03,8.12806e-03
1.21500e+03,8.18037e-03
1.21600e+03,8.18497e-03
1.21700e+03,8.17259e-03
1.21800e+03,8.14590e-03
1.21900e+03,8.17949e-03
1.22000e+03,8.26126e-03
1.22100e+03,8.33595e-03
1.22200e+03,8.35119e-03
1.22300e+03,8.29398e-03
1.22400e+03,8.19905e-03
1.22500e+03,8.12232e-03
1.22600e+03,8.03586e-03
1.22700e+03,7.99183e-03
1.22800e+03,7.94227e-03
1.22900e+03,7.93642e-03
1.23000e+03,7.88383e-03
1.23100e+03,7.85519e-03
1.23200e+03,7.83747e-03
1.23300e+03,7.92925e-03
1.23400e+03,8.05368e-03
1.23500e+03,8.21240e-03
1.23600e+03,8.33801e-03
1.23700e+03,8.44642e-03
1.23800e+03,8.49845e-03
1.23900e+03,8.53812e-03
1.24000e+03,8.55596e-03
1.24100e+03,8.60625e-03
1.24200e+03,8.68519e-03
1.24300e+03,8.80693e-03
1.24400e+03,8.97612e-03
1.24500e+03,9.10429e-03
1.24600e+03,9.19238e-03
1.24700e+03,9.19946e-03
1.24800e+03,9.20436e-03
1.24900e+03,9.23283e-03
1.25000e+03,9.28090e-03
1.25100e+03,9.36178e-03
1.25200e+03,9.41853e-03
1.25300e+03,9.50992e-03
1.25400e+03,9.58782e-03
1.25500e+03,9.68632e-03
1.25600e+03,9.71917e-03
1.25700e+03,9.72518e-03
1.25800e+03,9.71647e-03
1.25900e+03,9.73400e-03
1.26000e+03,9.76626e-03
1.26100e+03,9.78126e-03
1.26200e+03,9.76617e-03
1.26300e+03,9.72432e-03
1.26400e+03,9.66321e-03
1.26500e+03,9.66303e-03
1.26600e+03,9.69841e-03
1.26700e+03,9.77746e-03
1.26800e+03,9.79436e-03
1.26900e+03,9.78222e-03
1.27000e+03,9.69788e-03
1.27100e+03,9.60390e-03
1.27200e+03,9.48713e-03
1.27300e+03,9.45690e-03
1.27400e+03,9.45492e-03
1.27500e+03,9.48475e-03
1.27600e+03,9.46952e-03
1.27700e+03,9.43391e-03
1.27800e+03,9.38686e-03
1.27900e+03,9.34700e-03
1.28000e+03,9.31563e-03
1.28100e+03,9.30041e-03
1.28200e+03,9.29240e-03
1.28300e+03,9.30508e-03
1.28400e+03,9.31323e-03
1.28500e+03,9.32047e-03
1.28600e+03,9.36110e-03
1.28700e+03,9.40591e-03
1.28800e+03,9.45785e-03
1.28900e+03,9.46603e-03
1.29000e+03,9.48171e-03
1.29100e+03,9.48794e-03
1.29200e+03,9.47217e-03
1.29300e+03,9.40623e-03
1.29400e+03,9.32351e-03
1.29500e+03,9.27097e-03
1.29600e+03,9.24563e-03
1.29700e+03,9.20698e-03
1.29800e+03,9.16742e-03
1.29900e+03,9.10507e-03
1.30000e+03,9.06853e-03
1.30100e+03,9.03905e-03
1.30200e+03,9.07619e-03
1.30300e+03,9.12967e-03
1.30400e+03,9.20789e-03
1.30500e+03,9.30676e-03
1.30600e+03,9.38255e-03
1.30700e+03,9.48766e-03
1.30800e+03,9.55022e-03
1.30900e+03,9.58532e-03
1.31000e+03,9.55314e-03
1.31100e+03,9.49649e-03
1.31200e+03,9.44449e-03
1.31300e+03,9.43571e-03
1.31400e+03,9.49204e-03
1.31500e+03,9.57358e-03
1.31600e+03,9.63012e-03
1.31700e+03,9.67162e-03
1.31800e+03,9.68193e-03
1.31900e+03,9.70068e-03
1.32000e+03,9.63421e-03
1.32100e+03,9.55066e-03
1.32200e+03,9.42575e-03
1.32300e+03,9.35166e-03
1.32400e+03,9.27108e-03
1.32500e+03,9.18051e-03
1.32600e+03,9.09964e-03
1.32700e+03,9.07234e-03
1.32800e+03,9.10499e-03
1.32900e+03,9.17424e-03
1.33000e+03,9.27558e-03
1.33100e+03,9.40190e-03
1.33200e+03,9.49500e-03
1.33300e+03,9.49643e-03
1.33400e+03,9.45067e-03
1.33500e+03,9.39687e-03
1.33600e+03,9.37655e-03
1.33700e+03,9.33044e-03
1.33800e+03,9.31450e-03
1.33900e+03,9.33316e-03
1.34000e+03,9.34819e-03
1.34100e+03,9.33488e-03
1.34200e+03,9.27212e-03
1.34300e+03,9.24078e-03
1.34400e+03,9.15412e-03
1.34500e+03,9.05300e-03
1.34600e+03,8.93138e-03
1.34700e+03,8.86537e-03
1.34800e+03,8.82479e-03
1.34900e+03,8.80564e-03
1.35000e+03,8.78643e-03
1.35100e+03,8.79196e-03
1.35200e+03,8.81920e-03
1.35300e+03,8.87883e-03
1.35400e+03,8.97197e-03
1.35500e+03,9.12300e-03
1.35600e+03,9.25584e-03
1.35700e+03,9.34604e-03
1.35800e+03,9.36777e-03
1.35900e+03,9.37268e-03
1.36000e+03,9.39729e-03
1.36100e+03,9.43973e-03
1.36200e+03,9.52509e-03
1.36300e+03,9.58077e-03
1.36400e+03,9.54652e-03
1.36500e+03,9.42872e-03
1.36600e+03,9.32233e-03
1.36700e+03,9.25477e-03
1.36800e+03,9.18219e-03
1.36900e+03,9.11660e-03
1.37000e+03,9.06674e-03
1.37100e+03,9.04497e-03
1.37200e+03,8.97851e-03
1.37300e+03,8.90740e-03
1.37400e+03,8.81665e-03
1.37500e+03,8.76001e-03
1.37600e+03,8.70475e-03
1.37700e+03,8.64572e-03
1.37800e+03,8.58102e-03
1.37900e+03,8.51215e-03
1.38000e+03,8.44669e-03
1.38100e+03,8.37858e-03
1.38200e+03,8.32257e-03
1.38300e+03,8.25030e-03
1.38400e+03,8.18847e-03
1.38500e+03,8.13383e-03
1.38600e+03,8.07209e-03
1.38700e+03,7.98843e-03
1.38800e+03,7.91084e-03
1.38900e+03,7.84476e-03
1.39000e+03,7.85670e-03
1.39100e+03,7.86010e-03
1.39200e+03,7.86641e-03
1.39300e+03,7.82694e-03
1.39400e+03,7.77346e-03
1.39500e+03,7.67303e-03
1.39600e+03,7.53979e-03
1.39700e+03,7.37966e-03
1.39800e+03,7.22114e-03
1.39900e+03,7.09856e-03
1.40000e+03,7.02203e-03
1.40100e+03,6.97072e-03
1.40200e+03,6.92122e-03
1.40300e+03,6.87026e-03
1.40400e+03,6.82667e-03
1.40500e+03,6.75051e-03
1.40600e+03,6.65293e-03
1.40700e+03,6.55081e-03
1.40800e+03,6.48157e-03
1.40900e+03,6.43130e-03
1.41000e+03,6.38831e-03
1.41100e+03,6.38172e-03
1.41200e+03,6.38172e-03
1.41300e+03,6.37799e-03
1.41400e+03,6.32020e-03
1.41500e+03,6.22151e-03
1.41600e+03,6.12703e-03
1.41700e+03,6.01687e-03
1.41800e+03,5.89366e-03
1.41900e+03,5.75111e-03
1.42000e+03,5.60869e-03
1.42100e+03,5.45287e-03
1.42200e+03,5.28164e-03
1.42300e+03,5.11892e-03
1.42400e+03,5.00272e-03
1.42500e+03,4.88798e-03
1.42600e+03,4.74890e-03
1.42700e+03,4.58017e-03
1.42800e+03,4.42660e-03
1.42900e+03,4.27290e-03
1.43000e+03,4.11429e-03
1.43100e+03,3.98109e-03
1.43200e+03,3.88254e-03
1.43300e+03,3.82129e-03
1.43400e+03,3.74062e-03
1.43500e+03,3.69422e-03
1.43600e+03,3.66757e-03
1.43700e+03,3.66757e-03
1.43800e+03,3.65033e-03
1.43900e+03,3.60456e-03